#Cloudy 17.00 models results grids
# O/H: 6.9 - 9.1, log C/O: -1.4 - 0.6, log U: -2.5 - -0.5 (O/H vs. C/O empirically constrained)
# SED: double composite AGN power law, a(UV) = -1.5, a(ox) = -0.8, no grains
# Plane-parallel geometry, stop criterion: 98% free electrons
#
12+log(O/H) log(C/O) log(U) Lya_1216 NV_1239 CIV_1549 HeII_1640 OIII_1665 CIII_1909 OIII_5007
6.90 -0.900 -0.50 31.3570 0.0270 1.9444 1.5724 0.5261 0.0477 1.2628
6.90 -1.025 -0.50 31.3818 0.0214 1.4852 1.5656 0.5363 0.0364 1.2793
6.90 -1.150 -0.50 31.3880 0.0171 1.1297 1.5610 0.5435 0.0276 1.2913
6.90 -0.900 -0.75 33.5256 0.0328 1.2800 1.5109 0.3964 0.0538 1.0021
6.90 -1.025 -0.75 33.5435 0.0255 0.9747 1.5062 0.4017 0.0409 1.0113
6.90 -1.150 -0.75 33.5701 0.0200 0.7407 1.5023 0.4059 0.0310 1.0185
6.90 -0.900 -1.00 36.1068 0.0449 0.7163 1.4953 0.3190 0.0505 0.8222
6.90 -1.025 -1.00 36.1417 0.0344 0.5428 1.4920 0.3209 0.0381 0.8256
6.90 -1.150 -1.00 36.1568 0.0264 0.4108 1.4911 0.3222 0.0288 0.8276
6.90 -0.900 -1.25 39.3570 0.0588 0.3810 1.5246 0.2796 0.0411 0.7205
6.90 -1.025 -1.25 39.3667 0.0445 0.2868 1.5222 0.2806 0.0309 0.7224
6.90 -1.150 -1.25 39.3837 0.0339 0.2160 1.5209 0.2810 0.0232 0.7232
6.90 -0.900 -1.50 43.6933 0.0561 0.2649 1.6281 0.1772 0.0387 0.5395
6.90 -1.025 -1.50 43.6995 0.0425 0.1971 1.6254 0.1783 0.0287 0.5415
6.90 -1.150 -1.50 43.7005 0.0324 0.1474 1.6250 0.1788 0.0212 0.5423
6.90 -0.900 -1.75 46.7178 0.0383 0.2357 1.8041 0.0864 0.0483 0.4099
6.90 -1.025 -1.75 46.7295 0.0292 0.1759 1.8026 0.0867 0.0358 0.4103
6.90 -1.150 -1.75 46.7352 0.0224 0.1319 1.8014 0.0868 0.0266 0.4106
6.90 -0.900 -2.00 47.8654 0.0219 0.2009 1.9548 0.0622 0.0600 0.4044
6.90 -1.025 -2.00 47.9278 0.0168 0.1508 1.9514 0.0622 0.0447 0.4044
6.90 -1.150 -2.00 47.9356 0.0129 0.1138 1.9511 0.0623 0.0334 0.4044
6.90 -0.900 -2.25 47.8894 0.0095 0.1472 2.0669 0.0526 0.0667 0.4414
6.90 -1.025 -2.25 47.8381 0.0073 0.1117 2.0710 0.0527 0.0501 0.4411
6.90 -1.150 -2.25 47.8863 0.0055 0.0845 2.0679 0.0527 0.0375 0.4413
6.90 -0.900 -2.50 46.7698 0.0029 0.0893 2.1421 0.0472 0.0662 0.4998
6.90 -1.025 -2.50 46.7927 0.0015 0.0677 2.1408 0.0472 0.0497 0.4999
6.90 -1.150 -2.50 46.8188 0.0011 0.0514 2.1390 0.0472 0.0372 0.4999
6.90 -0.900 -2.75 44.8267 0.0000 0.0421 2.1471 0.0412 0.0575 0.5532
6.90 -1.025 -2.75 44.8185 0.0000 0.0319 2.1479 0.0412 0.0431 0.5533
6.90 -1.150 -2.75 44.8470 0.0000 0.0243 2.1469 0.0412 0.0323 0.5533
6.90 -0.900 -3.00 42.6888 0.0000 0.0150 2.0160 0.0316 0.0435 0.5473
6.90 -1.025 -3.00 42.6956 0.0000 0.0113 2.0162 0.0316 0.0327 0.5475
6.90 -1.150 -3.00 42.6981 0.0000 0.0085 2.0163 0.0317 0.0245 0.5476
6.90 -0.900 -3.25 40.9715 0.0000 0.0039 1.7171 0.0186 0.0290 0.4272
6.90 -1.025 -3.25 40.9559 0.0000 0.0020 1.7183 0.0186 0.0218 0.4279
6.90 -1.150 -3.25 40.9480 0.0000 0.0015 1.7189 0.0187 0.0163 0.4282
6.90 -0.900 -3.50 75.3403 0.0000 0.0000 1.2735 0.0074 0.0183 0.2184
6.90 -1.025 -3.50 75.3475 0.0000 0.0000 1.2735 0.0074 0.0138 0.2184
6.90 -1.150 -3.50 75.3530 0.0000 0.0000 1.2735 0.0074 0.0103 0.2184
6.90 -0.900 -3.75 73.3199 0.0000 0.0000 0.8376 0.0015 0.0098 0.0825
6.90 -1.025 -3.75 73.3268 0.0000 0.0000 0.8376 0.0015 0.0073 0.0825
6.90 -1.150 -3.75 73.3320 0.0000 0.0000 0.8376 0.0015 0.0055 0.0825
6.90 -0.900 -4.00 71.6995 0.0000 0.0000 0.5216 0.0000 0.0050 0.0265
6.90 -1.025 -4.00 71.7059 0.0000 0.0000 0.5216 0.0000 0.0037 0.0265
6.90 -1.150 -4.00 71.7107 0.0000 0.0000 0.5216 0.0000 0.0028 0.0265
7.00 -0.900 -0.50 31.1917 0.0321 2.3546 1.5942 0.6391 0.0574 1.5657
7.00 -1.150 -0.50 31.2360 0.0201 1.3762 1.5798 0.6652 0.0335 1.6092
7.00 -0.900 -0.75 33.3372 0.0400 1.5573 1.5278 0.4869 0.0655 1.2497
7.00 -1.150 -0.75 33.4052 0.0241 0.9042 1.5181 0.5007 0.0379 1.2732
7.00 -0.900 -1.00 35.9171 0.0559 0.8786 1.5088 0.3968 0.0620 1.0316
7.00 -1.150 -1.00 35.9725 0.0324 0.5050 1.5029 0.4022 0.0354 1.0407
7.00 -0.900 -1.25 39.1725 0.0732 0.4746 1.5356 0.3485 0.0512 0.9046
7.00 -1.150 -1.25 39.2059 0.0418 0.2685 1.5300 0.3510 0.0288 0.9100
7.00 -0.900 -1.50 43.5625 0.0693 0.3346 1.6386 0.2183 0.0491 0.6743
7.00 -1.150 -1.50 43.5622 0.0398 0.1848 1.6356 0.2205 0.0268 0.6782
7.00 -0.900 -1.75 46.5947 0.0474 0.2977 1.8111 0.1080 0.0613 0.5158
7.00 -1.150 -1.75 46.6264 0.0276 0.1655 1.8074 0.1088 0.0336 0.5172
7.00 -0.900 -2.00 47.8068 0.0269 0.2517 1.9572 0.0779 0.0755 0.5092
7.00 -1.150 -2.00 47.8247 0.0158 0.1422 1.9561 0.0782 0.0421 0.5093
7.00 -0.900 -2.25 47.7656 0.0117 0.1839 2.0707 0.0660 0.0837 0.5555
7.00 -1.150 -2.25 47.7758 0.0069 0.1052 2.0714 0.0663 0.0471 0.5554
7.00 -0.900 -2.50 46.5687 0.0037 0.1113 2.1528 0.0592 0.0831 0.6285
7.00 -1.150 -2.50 46.6913 0.0014 0.0636 2.1430 0.0592 0.0467 0.6288
7.00 -0.900 -2.75 44.6804 0.0000 0.0521 2.1494 0.0515 0.0719 0.6955
7.00 -1.150 -2.75 44.7104 0.0000 0.0301 2.1490 0.0516 0.0406 0.6957
7.00 -0.900 -3.00 42.5441 0.0000 0.0185 2.0170 0.0394 0.0544 0.6874
7.00 -1.150 -3.00 42.5414 0.0000 0.0106 2.0179 0.0396 0.0307 0.6879
7.00 -0.900 -3.25 40.5510 0.0000 0.0051 1.7324 0.0238 0.0367 0.5446
7.00 -1.150 -3.25 40.8132 0.0000 0.0018 1.7187 0.0232 0.0204 0.5371
7.00 -0.900 -3.50 75.1301 0.0000 0.0000 1.2731 0.0091 0.0229 0.2740
7.00 -1.150 -3.50 75.1459 0.0000 0.0000 1.2731 0.0091 0.0129 0.2741
7.00 -0.900 -3.75 73.1660 0.0000 0.0000 0.8375 0.0019 0.0123 0.1036
7.00 -1.150 -3.75 73.1811 0.0000 0.0000 0.8375 0.0019 0.0069 0.1036
7.00 -0.900 -4.00 71.5467 0.0000 0.0000 0.5215 0.0000 0.0062 0.0333
7.00 -1.150 -4.00 71.5608 0.0000 0.0000 0.5215 0.0000 0.0035 0.0333
7.20 -0.900 -0.50 30.5848 0.0444 3.3153 1.6479 0.9097 0.0783 2.3968
7.20 -1.025 -0.50 30.6418 0.0346 2.5632 1.6378 0.9401 0.0606 2.4476
7.20 -1.150 -0.50 30.6826 0.0273 1.9668 1.6315 0.9629 0.0464 2.4838
7.20 -0.900 -0.75 32.6637 0.0593 2.2487 1.5689 0.7201 0.0925 1.9451
7.20 -1.025 -0.75 32.7103 0.0454 1.7273 1.5620 0.7365 0.0710 1.9733
7.20 -1.150 -0.75 32.7484 0.0349 1.3199 1.5564 0.7489 0.0542 1.9948
7.20 -0.900 -1.00 35.2361 0.0861 1.3050 1.5421 0.6047 0.0905 1.6225
7.20 -1.025 -1.00 35.2864 0.0649 0.9923 1.5375 0.6111 0.0687 1.6338
7.20 -1.150 -1.00 35.3057 0.0492 0.7533 1.5348 0.6165 0.0521 1.6428
7.20 -0.900 -1.25 38.6233 0.1127 0.7272 1.5714 0.5248 0.0774 1.4034
7.20 -1.025 -1.25 38.6437 0.0845 0.5454 1.5682 0.5281 0.0581 1.4093
7.20 -1.150 -1.25 38.6753 0.0636 0.4091 1.5649 0.5305 0.0436 1.4140
7.20 -0.900 -1.50 43.1700 0.1047 0.5294 1.6793 0.3174 0.0775 1.0320
7.20 -1.025 -1.50 43.1754 0.0790 0.3918 1.6756 0.3207 0.0573 1.0379
7.20 -1.150 -1.50 43.1865 0.0597 0.2900 1.6726 0.3230 0.0423 1.0422
7.20 -0.900 -1.75 46.2021 0.0717 0.4726 1.8375 0.1659 0.0978 0.8130
7.20 -1.025 -1.75 46.2200 0.0545 0.3509 1.8341 0.1671 0.0723 0.8153
7.20 -1.150 -1.75 46.2409 0.0415 0.2605 1.8325 0.1675 0.0534 0.8159
7.20 -0.900 -2.00 47.3900 0.0405 0.3949 1.9752 0.1214 0.1193 0.8060
7.20 -1.025 -2.00 47.4253 0.0309 0.2954 1.9733 0.1217 0.0889 0.8063
7.20 -1.150 -2.00 47.4444 0.0238 0.2213 1.9721 0.1219 0.0662 0.8066
7.20 -0.900 -2.25 47.2028 0.0175 0.2874 2.0948 0.1034 0.1315 0.8780
7.20 -1.025 -2.25 47.2705 0.0134 0.2161 2.0910 0.1035 0.0984 0.8786
7.20 -1.150 -2.25 47.3574 0.0103 0.1624 2.0850 0.1035 0.0737 0.8794
7.20 -0.900 -2.50 46.2028 0.0055 0.1700 2.1546 0.0920 0.1291 0.9943
7.20 -1.025 -2.50 46.1539 0.0043 0.1298 2.1682 0.0927 0.0975 0.9958
7.20 -1.150 -2.50 46.0977 0.0032 0.0983 2.1663 0.0927 0.0731 0.9944
7.20 -0.900 -2.75 44.1531 0.0000 0.0793 2.1603 0.0802 0.1120 1.0982
7.20 -1.025 -2.75 44.1751 0.0000 0.0602 2.1598 0.0802 0.0841 1.0983
7.20 -1.150 -2.75 44.2038 0.0000 0.0457 2.1587 0.0802 0.0631 1.0984
7.20 -0.900 -3.00 42.1264 0.0000 0.0281 2.0194 0.0609 0.0843 1.0815
7.20 -1.025 -3.00 42.1797 0.0000 0.0212 2.0198 0.0610 0.0632 1.0820
7.20 -1.150 -3.00 42.4162 0.0000 0.0161 2.0275 0.0612 0.0476 1.0863
7.20 -0.900 -3.25 40.1086 0.0000 0.0077 1.7311 0.0365 0.0568 0.8526
7.20 -1.025 -3.25 40.1125 0.0000 0.0059 1.7324 0.0366 0.0427 0.8544
7.20 -1.150 -3.25 40.0951 0.0000 0.0044 1.7336 0.0367 0.0321 0.8555
7.20 -0.900 -3.50 74.6678 0.0000 0.0011 1.2737 0.0142 0.0357 0.4313
7.20 -1.025 -3.50 74.6820 0.0000 0.0000 1.2737 0.0142 0.0268 0.4314
7.20 -1.150 -3.50 74.6927 0.0000 0.0000 1.2737 0.0142 0.0201 0.4315
7.20 -0.900 -3.75 72.6884 0.0000 0.0000 0.8372 0.0039 0.0191 0.1629
7.20 -1.025 -3.75 72.7019 0.0000 0.0000 0.8373 0.0040 0.0143 0.1630
7.20 -1.150 -3.75 72.7120 0.0000 0.0000 0.8373 0.0040 0.0108 0.1630
7.20 -0.900 -4.00 71.0774 0.0000 0.0000 0.5212 0.0000 0.0096 0.0523
7.20 -1.025 -4.00 71.0899 0.0000 0.0000 0.5212 0.0000 0.0072 0.0523
7.20 -1.150 -4.00 71.0992 0.0000 0.0000 0.5212 0.0000 0.0055 0.0523
7.30 -0.900 -0.50 30.1826 0.0514 3.8008 1.6816 1.0553 0.0878 2.9363
7.30 -1.025 -0.50 30.2384 0.0400 2.9552 1.6706 1.0964 0.0682 3.0067
7.30 -1.150 -0.50 30.2786 0.0314 2.2818 1.6614 1.1303 0.0527 3.0658
7.30 -0.900 -0.75 32.2210 0.0722 2.6392 1.5958 0.8605 0.1069 2.4115
7.30 -1.025 -0.75 32.2669 0.0551 2.0366 1.5878 0.8838 0.0824 2.4533
7.30 -1.150 -0.75 32.3055 0.0422 1.5632 1.5807 0.9025 0.0631 2.4874
7.30 -0.900 -1.00 34.7986 0.1070 1.5647 1.5667 0.7362 0.1071 2.0213
7.30 -1.025 -1.00 34.8440 0.0804 1.1935 1.5613 0.7464 0.0816 2.0398
7.30 -1.150 -1.00 34.8821 0.0607 0.9071 1.5570 0.7539 0.0620 2.0535
7.30 -0.900 -1.25 38.2816 0.1394 0.8918 1.5984 0.6338 0.0939 1.7327
7.30 -1.025 -1.25 38.3032 0.1044 0.6693 1.5941 0.6392 0.0706 1.7431
7.30 -1.150 -1.25 38.3221 0.0784 0.5018 1.5915 0.6429 0.0530 1.7501
7.30 -0.900 -1.50 42.8987 0.1282 0.6638 1.7066 0.3783 0.0969 1.2706
7.30 -1.025 -1.50 42.9109 0.0964 0.4909 1.7023 0.3823 0.0716 1.2782
7.30 -1.150 -1.50 42.9427 0.0727 0.3628 1.6973 0.3858 0.0530 1.2852
7.30 -0.900 -1.75 45.9057 0.0881 0.5948 1.8563 0.2048 0.1230 1.0198
7.30 -1.025 -1.75 45.9299 0.0668 0.4413 1.8532 0.2062 0.0910 1.0219
7.30 -1.150 -1.75 45.9376 0.0508 0.3275 1.8517 0.2071 0.0673 1.0236
7.30 -0.900 -2.00 47.0679 0.0495 0.4948 1.9908 0.1512 0.1497 1.0131
7.30 -1.025 -2.00 47.1093 0.0379 0.3698 1.9894 0.1515 0.1114 1.0131
7.30 -1.150 -2.00 47.1098 0.0290 0.2769 1.9893 0.1520 0.0829 1.0135
7.30 -0.900 -2.25 46.9005 0.0212 0.3569 2.1040 0.1288 0.1641 1.1044
7.30 -1.025 -2.25 46.9316 0.0163 0.2686 2.1038 0.1290 0.1229 1.1042
7.30 -1.150 -2.25 46.9760 0.0126 0.2023 2.1011 0.1292 0.0920 1.1048
7.30 -0.900 -2.50 45.7490 0.0067 0.2120 2.1751 0.1150 0.1614 1.2502
7.30 -1.025 -2.50 45.9092 0.0052 0.1587 2.1615 0.1147 0.1206 1.2499
7.30 -1.150 -2.50 45.9352 0.0039 0.1200 2.1608 0.1148 0.0905 1.2500
7.30 -0.900 -2.75 43.8154 0.0000 0.0974 2.1655 0.0995 0.1392 1.3781
7.30 -1.025 -2.75 43.8079 0.0000 0.0741 2.1680 0.0998 0.1046 1.3792
7.30 -1.150 -2.75 43.8412 0.0000 0.0562 2.1662 0.0998 0.0785 1.3790
7.30 -0.900 -3.00 41.7447 0.0000 0.0344 2.0230 0.0755 0.1047 1.3546
7.30 -1.025 -3.00 41.6503 0.0000 0.0264 2.0297 0.0761 0.0789 1.3598
7.30 -1.150 -3.00 41.7238 0.0000 0.0200 2.0269 0.0759 0.0591 1.3584
7.30 -0.900 -3.25 39.8011 0.0000 0.0095 1.7310 0.0449 0.0703 1.0649
7.30 -1.025 -3.25 39.7865 0.0000 0.0072 1.7326 0.0452 0.0528 1.0672
7.30 -1.150 -3.25 39.7734 0.0000 0.0054 1.7340 0.0453 0.0397 1.0690
7.30 -0.900 -3.50 74.3088 0.0000 0.0014 1.2738 0.0176 0.0444 0.5399
7.30 -1.025 -3.50 74.3265 0.0000 0.0010 1.2738 0.0176 0.0333 0.5401
7.30 -1.150 -3.50 74.3398 0.0000 0.0000 1.2738 0.0176 0.0250 0.5402
7.30 -0.900 -3.75 72.3516 0.0000 0.0000 0.8370 0.0049 0.0237 0.2040
7.30 -1.025 -3.75 72.3684 0.0000 0.0000 0.8370 0.0049 0.0178 0.2040
7.30 -1.150 -3.75 72.3810 0.0000 0.0000 0.8370 0.0050 0.0133 0.2041
7.30 -0.900 -4.00 70.7437 0.0000 0.0000 0.5209 0.0000 0.0120 0.0655
7.30 -1.025 -4.00 70.7594 0.0000 0.0000 0.5209 0.0000 0.0090 0.0655
7.30 -1.150 -4.00 70.7712 0.0000 0.0000 0.5210 0.0000 0.0067 0.0655
7.50 -0.900 -0.50 29.2006 0.0666 4.4919 1.7505 1.3244 0.0973 4.3305
7.50 -1.025 -0.50 29.2669 0.0515 3.5391 1.7392 1.3891 0.0765 4.4518
7.50 -1.150 -0.50 29.3232 0.0402 2.7587 1.7308 1.4418 0.0597 4.5478
7.50 -0.900 -0.75 31.1180 0.1055 3.4043 1.6599 1.1758 0.1317 3.6578
7.50 -1.025 -0.75 31.1868 0.0799 2.6473 1.6516 1.2146 0.1023 3.7306
7.50 -1.150 -0.75 31.2312 0.0608 2.0465 1.6435 1.2476 0.0790 3.7948
7.50 -0.900 -1.00 33.7654 0.1641 2.1518 1.6341 1.0476 0.1420 3.0743
7.50 -1.025 -1.00 33.8179 0.1226 1.6492 1.6269 1.0671 0.1089 3.1122
7.50 -1.150 -1.00 33.8678 0.0919 1.2580 1.6209 1.0819 0.0831 3.1412
7.50 -0.900 -1.25 37.5303 0.2105 1.3088 1.6734 0.8813 0.1340 2.5756
7.50 -1.025 -1.25 37.5609 0.1570 0.9828 1.6671 0.8925 0.1011 2.5979
7.50 -1.150 -1.25 37.5704 0.1174 0.7370 1.6632 0.9012 0.0759 2.6147
7.50 -0.900 -1.50 42.1965 0.1901 1.0282 1.7758 0.5225 0.1482 1.9070
7.50 -1.025 -1.50 42.2055 0.1428 0.7636 1.7703 0.5307 0.1104 1.9230
7.50 -1.150 -1.50 42.2091 0.1075 0.5658 1.7661 0.5372 0.0818 1.9356
7.50 -0.900 -1.75 45.1266 0.1317 0.9307 1.9040 0.3069 0.1917 1.5982
7.50 -1.025 -1.75 45.1536 0.0997 0.6922 1.9007 0.3097 0.1426 1.6028
7.50 -1.150 -1.75 45.1987 0.0755 0.5135 1.8967 0.3115 0.1056 1.6065
7.50 -0.900 -2.00 46.2418 0.0735 0.7696 2.0275 0.2314 0.2328 1.5991
7.50 -1.025 -2.00 46.2927 0.0561 0.5744 2.0251 0.2325 0.1736 1.5998
7.50 -1.150 -2.00 46.3353 0.0428 0.4289 2.0233 0.2330 0.1292 1.6003
7.50 -0.900 -2.25 46.0883 0.0308 0.5450 2.1284 0.1973 0.2529 1.7451
7.50 -1.025 -2.25 46.0995 0.0238 0.4110 2.1303 0.1983 0.1897 1.7445
7.50 -1.150 -2.25 46.2118 0.0183 0.3078 2.1234 0.1983 0.1417 1.7463
7.50 -0.900 -2.50 44.9364 0.0097 0.3167 2.1862 0.1752 0.2460 1.9697
7.50 -1.025 -2.50 44.9827 0.0075 0.2400 2.1896 0.1760 0.1851 1.9718
7.50 -1.150 -2.50 45.0888 0.0057 0.1801 2.1790 0.1756 0.1385 1.9710
7.50 -0.900 -2.75 42.8935 0.0015 0.1445 2.1768 0.1512 0.2120 2.1629
7.50 -1.025 -2.75 43.0202 0.0011 0.1090 2.1727 0.1512 0.1589 2.1632
7.50 -1.150 -2.75 42.8913 0.0000 0.0839 2.1878 0.1524 0.1202 2.1699
7.50 -0.900 -3.00 40.8147 0.0000 0.0507 2.0337 0.1142 0.1591 2.1192
7.50 -1.025 -3.00 41.1203 0.0000 0.0387 2.0446 0.1148 0.1201 2.1318
7.50 -1.150 -3.00 40.9359 0.0000 0.0291 2.0300 0.1141 0.0895 2.1176
7.50 -0.900 -3.25 38.6729 0.0000 0.0145 1.7443 0.0685 0.1074 1.6727
7.50 -1.025 -3.25 38.6976 0.0000 0.0109 1.7441 0.0687 0.0806 1.6734
7.50 -1.150 -3.25 38.9008 0.0000 0.0080 1.7344 0.0677 0.0600 1.6584
7.50 -0.900 -3.50 73.3040 0.0000 0.0031 1.2739 0.0267 0.0675 0.8420
7.50 -1.025 -3.50 73.3311 0.0000 0.0016 1.2739 0.0267 0.0507 0.8424
7.50 -1.150 -3.50 73.3514 0.0000 0.0012 1.2739 0.0267 0.0381 0.8427
7.50 -0.900 -3.75 71.4022 0.0000 0.0000 0.8363 0.0074 0.0361 0.3181
7.50 -1.025 -3.75 71.4279 0.0000 0.0000 0.8363 0.0074 0.0271 0.3182
7.50 -1.150 -3.75 71.4473 0.0000 0.0000 0.8363 0.0074 0.0203 0.3183
7.50 -0.900 -4.00 69.8113 0.0000 0.0000 0.5202 0.0013 0.0181 0.1020
7.50 -1.025 -4.00 69.8354 0.0000 0.0000 0.5202 0.0013 0.0136 0.1021
7.50 -1.150 -4.00 69.8535 0.0000 0.0000 0.5202 0.0013 0.0102 0.1021
7.60 -0.900 -0.50 28.6569 0.0752 4.5508 1.7798 1.4215 0.0946 5.1707
7.60 -1.025 -0.50 28.7163 0.0580 3.6033 1.7705 1.4933 0.0748 5.3157
7.60 -1.150 -0.50 28.7773 0.0449 2.8244 1.7622 1.5547 0.0586 5.4383
7.60 -0.900 -0.75 30.4847 0.1264 3.6852 1.6973 1.3309 0.1385 4.4393
7.60 -1.025 -0.75 30.5701 0.0954 2.8803 1.6877 1.3791 0.1082 4.5374
7.60 -1.150 -0.75 30.6004 0.0723 2.2342 1.6799 1.4197 0.0839 4.6202
7.60 -0.900 -1.00 33.2034 0.2012 2.4505 1.6790 1.2151 0.1583 3.7340
7.60 -1.025 -1.00 33.2599 0.1501 1.8817 1.6711 1.2403 0.1218 3.7846
7.60 -1.150 -1.00 33.2965 0.1123 1.4379 1.6656 1.2604 0.0930 3.8242
7.60 -0.900 -1.25 37.1316 0.2556 1.5573 1.7249 1.0083 0.1571 3.0885
7.60 -1.025 -1.25 37.1388 0.1906 1.1734 1.7162 1.0251 0.1189 3.1258
7.60 -1.150 -1.25 37.1717 0.1425 0.8790 1.7122 1.0354 0.0892 3.1440
7.60 -0.900 -1.50 41.7323 0.2297 1.2680 1.8186 0.6076 0.1815 2.3299
7.60 -1.025 -1.50 41.7500 0.1725 0.9450 1.8117 0.6177 0.1356 2.3503
7.60 -1.150 -1.50 41.7594 0.1296 0.7010 1.8072 0.6259 0.1008 2.3663
7.60 -0.900 -1.75 44.5794 0.1600 1.1553 1.9363 0.3728 0.2371 1.9964
7.60 -1.025 -1.75 44.6375 0.1211 0.8621 1.9295 0.3769 0.1770 2.0057
7.60 -1.150 -1.75 44.6992 0.0915 0.6391 1.9252 0.3788 0.1313 2.0090
7.60 -0.900 -2.00 45.6686 0.0888 0.9522 2.0519 0.2843 0.2878 2.0058
7.60 -1.025 -2.00 45.7670 0.0677 0.7126 2.0461 0.2859 0.2151 2.0093
7.60 -1.150 -2.00 45.8462 0.0515 0.5306 2.0414 0.2867 0.1602 2.0113
7.60 -0.900 -2.25 45.4842 0.0369 0.6710 2.1482 0.2432 0.3124 2.1911
7.60 -1.025 -2.25 45.5379 0.0284 0.5051 2.1460 0.2443 0.2342 2.1919
7.60 -1.150 -2.25 45.5711 0.0220 0.3805 2.1463 0.2453 0.1755 2.1922
7.60 -0.900 -2.50 44.1578 0.0116 0.3898 2.2118 0.2161 0.3038 2.4685
7.60 -1.025 -2.50 44.3404 0.0089 0.2925 2.2030 0.2162 0.2276 2.4713
7.60 -1.150 -2.50 44.4135 0.0069 0.2205 2.1985 0.2165 0.1707 2.4717
7.60 -0.900 -2.75 42.1907 0.0017 0.1753 2.1912 0.1851 0.2601 2.7057
7.60 -1.025 -2.75 42.1921 0.0013 0.1335 2.1965 0.1861 0.1960 2.7105
7.60 -1.150 -2.75 42.3674 0.0010 0.1001 2.1832 0.1854 0.1465 2.7062
7.60 -0.900 -3.00 39.9554 0.0000 0.0619 2.0496 0.1399 0.1955 2.6515
7.60 -1.025 -3.00 40.1066 0.0000 0.0465 2.0410 0.1394 0.1462 2.6435
7.60 -1.150 -3.00 40.0455 0.0000 0.0357 2.0432 0.1401 0.1100 2.6501
7.60 -0.900 -3.25 38.6297 0.0000 0.0178 1.7803 0.0849 0.1336 2.1207
7.60 -1.025 -3.25 38.7255 0.0000 0.0136 1.7837 0.0852 0.1005 2.1260
7.60 -1.150 -3.25 38.7388 0.0000 0.0102 1.7831 0.0852 0.0754 2.1263
7.60 -0.900 -3.50 72.6398 0.0000 0.0038 1.2738 0.0325 0.0828 1.0482
7.60 -1.025 -3.50 72.6730 0.0000 0.0019 1.2738 0.0326 0.0622 1.0488
7.60 -1.150 -3.50 72.6980 0.0000 0.0014 1.2738 0.0326 0.0467 1.0492
7.60 -0.900 -3.75 70.7827 0.0000 0.0000 0.8357 0.0091 0.0442 0.3960
7.60 -1.025 -3.75 70.8144 0.0000 0.0000 0.8357 0.0091 0.0331 0.3962
7.60 -1.150 -3.75 70.8382 0.0000 0.0000 0.8357 0.0091 0.0249 0.3964
7.60 -0.900 -4.00 69.1349 0.0000 0.0000 0.5191 0.0016 0.0222 0.1268
7.60 -1.025 -4.00 69.2234 0.0000 0.0000 0.5196 0.0016 0.0167 0.1270
7.60 -1.150 -4.00 69.2469 0.0000 0.0000 0.5196 0.0016 0.0125 0.1271
7.70 -0.900 -0.50 28.0766 0.0867 4.3172 1.8074 1.4633 0.0851 6.0819
7.70 -1.025 -0.50 28.1325 0.0664 3.4318 1.7990 1.5382 0.0675 6.2486
7.70 -1.150 -0.50 28.1720 0.0512 2.6981 1.7929 1.6019 0.0530 6.3859
7.70 -0.900 -0.75 29.8109 0.1518 3.8347 1.7429 1.4649 0.1381 5.3309
7.70 -1.025 -0.75 29.8821 0.1143 3.0074 1.7349 1.5207 0.1084 5.4481
7.70 -1.150 -0.75 29.9429 0.0863 2.3375 1.7275 1.5669 0.0842 5.5464
7.70 -0.900 -1.00 32.6521 0.2452 2.7341 1.7383 1.3737 0.1715 4.4750
7.70 -1.025 -1.00 32.6999 0.1830 2.1029 1.7302 1.4055 0.1322 4.5412
7.70 -1.150 -1.00 32.7314 0.1366 1.6097 1.7231 1.4316 0.1013 4.5974
7.70 -0.900 -1.25 36.6944 0.3069 1.8398 1.7861 1.1276 0.1823 3.6686
7.70 -1.025 -1.25 36.7019 0.2295 1.3888 1.7778 1.1481 0.1380 3.7140
7.70 -1.150 -1.25 36.7322 0.1714 1.0418 1.7714 1.1631 0.1039 3.7449
7.70 -0.900 -1.50 41.1544 0.2757 1.5522 1.8712 0.6964 0.2200 2.8278
7.70 -1.025 -1.50 41.2076 0.2070 1.1593 1.8620 0.7089 0.1648 2.8555
7.70 -1.150 -1.50 41.2377 0.1554 0.8626 1.8555 0.7185 0.1229 2.8771
7.70 -0.900 -1.75 43.9234 0.1929 1.4232 1.9729 0.4486 0.2908 2.4887
7.70 -1.025 -1.75 43.9455 0.1464 1.0668 1.9689 0.4549 0.2178 2.5000
7.70 -1.150 -1.75 44.0352 0.1106 0.7937 1.9625 0.4578 0.1622 2.5064
7.70 -0.900 -2.00 44.9367 0.1066 1.1720 2.0835 0.3474 0.3538 2.5124
7.70 -1.025 -2.00 45.0258 0.0814 0.8789 2.0784 0.3498 0.2649 2.5163
7.70 -1.150 -2.00 45.1046 0.0621 0.6576 2.0749 0.3514 0.1978 2.5193
7.70 -0.900 -2.25 44.7738 0.0437 0.8205 2.1691 0.2979 0.3833 2.7510
7.70 -1.025 -2.25 44.8388 0.0336 0.6162 2.1654 0.2991 0.2873 2.7508
7.70 -1.150 -2.25 44.9026 0.0260 0.4634 2.1640 0.3001 0.2152 2.7517
7.70 -0.900 -2.50 43.5600 0.0135 0.4661 2.2125 0.2625 0.3692 3.0919
7.70 -1.025 -2.50 43.5376 0.0105 0.3542 2.2195 0.2641 0.2783 3.0931
7.70 -1.150 -2.50 43.4897 0.0082 0.2692 2.2267 0.2655 0.2096 3.0935
7.70 -0.900 -2.75 41.3874 0.0032 0.2093 2.2019 0.2243 0.3157 3.3736
7.70 -1.025 -2.75 41.4557 0.0016 0.1585 2.2004 0.2248 0.2374 3.3760
7.70 -1.150 -2.75 41.5172 0.0012 0.1200 2.1985 0.2252 0.1783 3.3772
7.70 -0.900 -3.00 39.4474 0.0000 0.0722 2.0498 0.1675 0.2358 3.2864
7.70 -1.025 -3.00 39.1601 0.0000 0.0559 2.0577 0.1690 0.1779 3.2975
7.70 -1.150 -3.00 39.2116 0.0000 0.0424 2.0551 0.1690 0.1334 3.2959
7.70 -0.900 -3.25 37.4816 0.0000 0.0211 1.7675 0.1009 0.1599 2.6024
7.70 -1.025 -3.25 37.6987 0.0000 0.0160 1.7765 0.1017 0.1208 2.6181
7.70 -1.150 -3.25 37.8598 0.0000 0.0122 1.7834 0.1022 0.0911 2.6298
7.70 -0.900 -3.50 71.7769 0.0000 0.0045 1.2734 0.0392 0.1004 1.2996
7.70 -1.025 -3.50 71.8172 0.0000 0.0035 1.2735 0.0393 0.0755 1.3006
7.70 -1.150 -3.50 71.8476 0.0000 0.0017 1.2735 0.0393 0.0567 1.3013
7.70 -0.900 -3.75 69.9598 0.0000 0.0000 0.8348 0.0110 0.0536 0.4908
7.70 -1.025 -3.75 69.9985 0.0000 0.0000 0.8348 0.0110 0.0403 0.4912
7.70 -1.150 -3.75 70.0275 0.0000 0.0000 0.8349 0.0110 0.0303 0.4915
7.70 -0.900 -4.00 68.3873 0.0000 0.0000 0.5188 0.0019 0.0268 0.1573
7.70 -1.025 -4.00 68.4225 0.0000 0.0000 0.5188 0.0020 0.0202 0.1574
7.70 -1.150 -4.00 68.4513 0.0000 0.0000 0.5188 0.0020 0.0152 0.1575
7.80 -0.900 -0.50 27.5367 0.1022 3.9597 1.8323 1.4410 0.0749 6.9858
7.80 -1.025 -0.50 27.5964 0.0777 3.1520 1.8257 1.5162 0.0595 7.1719
7.80 -1.150 -0.50 27.6294 0.0594 2.4786 1.8203 1.5791 0.0466 7.3245
7.80 -0.900 -0.75 29.2181 0.1804 3.8524 1.7970 1.5587 0.1337 6.2783
7.80 -1.025 -0.75 29.2788 0.1356 3.0248 1.7893 1.6200 0.1050 6.4167
7.80 -1.150 -0.75 29.3517 0.1022 2.3508 1.7840 1.6692 0.0816 6.5225
7.80 -0.900 -1.00 32.1473 0.2946 2.9835 1.8107 1.5102 0.1823 5.2749
7.80 -1.025 -1.00 32.2006 0.2200 2.2976 1.8019 1.5483 0.1407 5.3569
7.80 -1.150 -1.00 32.2433 0.1643 1.7568 1.7947 1.5783 0.1078 5.4224
7.80 -0.900 -1.25 36.2536 0.3638 2.1469 1.8550 1.2314 0.2091 4.3101
7.80 -1.025 -1.25 36.2720 0.2727 1.6223 1.8463 1.2568 0.1585 4.3659
7.80 -1.150 -1.25 36.2833 0.2039 1.2209 1.8392 1.2775 0.1197 4.4119
7.80 -0.900 -1.50 40.4713 0.3282 1.8869 1.9275 0.7947 0.2646 3.4353
7.80 -1.025 -1.50 40.5076 0.2470 1.4141 1.9195 0.8104 0.1988 3.4691
7.80 -1.150 -1.50 40.5251 0.1857 1.0559 1.9132 0.8232 0.1487 3.4978
7.80 -0.900 -1.75 43.0639 0.2317 1.7459 2.0199 0.5376 0.3542 3.0949
7.80 -1.025 -1.75 43.1679 0.1752 1.3069 2.0123 0.5432 0.2654 3.1067
7.80 -1.150 -1.75 43.2478 0.1325 0.9759 2.0044 0.5489 0.1984 3.1218
7.80 -0.900 -2.00 44.1514 0.1264 1.4270 2.1108 0.4212 0.4310 3.1498
7.80 -1.025 -2.00 44.2262 0.0967 1.0737 2.1073 0.4248 0.3236 3.1540
7.80 -1.150 -2.00 44.3112 0.0739 0.8053 2.1042 0.4276 0.2423 3.1579
7.80 -0.900 -2.25 43.8457 0.0511 0.9926 2.1946 0.3616 0.4660 3.4426
7.80 -1.025 -2.25 43.9786 0.0394 0.7477 2.1892 0.3638 0.3501 3.4471
7.80 -1.150 -2.25 44.0515 0.0304 0.5614 2.1877 0.3650 0.2624 3.4473
7.80 -0.900 -2.50 42.4547 0.0158 0.5630 2.2445 0.3188 0.4492 3.8611
7.80 -1.025 -2.50 42.6455 0.0122 0.4227 2.2364 0.3193 0.3367 3.8649
7.80 -1.150 -2.50 42.7713 0.0094 0.3181 2.2304 0.3198 0.2525 3.8677
7.80 -0.900 -2.75 40.4534 0.0037 0.2459 2.2131 0.2684 0.3790 4.1936
7.80 -1.025 -2.75 40.4145 0.0019 0.1883 2.2236 0.2707 0.2864 4.2061
7.80 -1.150 -2.75 40.5294 0.0014 0.1416 2.2144 0.2704 0.2145 4.2013
7.80 -0.900 -3.00 38.1112 0.0000 0.0864 2.0694 0.2011 0.2843 4.0833
7.80 -1.025 -3.00 38.2460 0.0000 0.0651 2.0514 0.2004 0.2126 4.0704
7.80 -1.150 -3.00 38.3719 0.0000 0.0492 2.0549 0.2004 0.1595 4.0685
7.80 -0.900 -3.25 36.6063 0.0000 0.0248 1.7756 0.1198 0.1917 3.2177
7.80 -1.025 -3.25 36.6727 0.0000 0.0189 1.7770 0.1202 0.1442 3.2231
7.80 -1.150 -3.25 36.6761 0.0000 0.0142 1.7756 0.1203 0.1082 3.2225
7.80 -0.900 -3.50 70.7768 0.0000 0.0054 1.2727 0.0468 0.1207 1.6058
7.80 -1.025 -3.50 70.8254 0.0000 0.0041 1.2728 0.0470 0.0908 1.6073
7.80 -1.150 -3.50 70.8620 0.0000 0.0031 1.2728 0.0471 0.0682 1.6084
7.80 -0.900 -3.75 68.9584 0.0000 0.0000 0.8329 0.0130 0.0644 0.6059
7.80 -1.025 -3.75 69.0052 0.0000 0.0000 0.8329 0.0131 0.0484 0.6065
7.80 -1.150 -3.75 69.0404 0.0000 0.0000 0.8330 0.0131 0.0364 0.6070
7.80 -0.900 -4.00 67.4699 0.0000 0.0000 0.5177 0.0023 0.0323 0.1942
7.80 -1.025 -4.00 67.5138 0.0000 0.0000 0.5177 0.0023 0.0243 0.1944
7.80 -1.150 -4.00 67.5468 0.0000 0.0000 0.5178 0.0023 0.0182 0.1945
7.90 -0.900 -0.50 27.0582 0.1265 3.5914 1.8761 1.3171 0.0646 7.7703
7.90 -1.025 -0.50 27.1116 0.0952 2.8454 1.8696 1.3877 0.0510 7.9689
7.90 -1.150 -0.50 27.1600 0.0721 2.2337 1.8646 1.4488 0.0400 8.1369
7.90 -0.900 -0.75 28.6723 0.2150 3.7537 1.8748 1.5753 0.1239 7.2199
7.90 -1.025 -0.75 28.7099 0.1611 2.9460 1.8658 1.6397 0.0972 7.3846
7.90 -1.150 -0.75 28.7705 0.1213 2.2908 1.8604 1.6934 0.0756 7.5127
7.90 -0.900 -1.00 31.7017 0.3492 3.2091 1.9017 1.6006 0.1896 6.1139
7.90 -1.025 -1.00 31.7270 0.2612 2.4744 1.8913 1.6462 0.1464 6.2236
7.90 -1.150 -1.00 31.7946 0.1953 1.8894 1.8859 1.6793 0.1120 6.2880
7.90 -0.900 -1.25 35.7246 0.4266 2.4949 1.9378 1.3148 0.2374 5.0192
7.90 -1.025 -1.25 35.7532 0.3207 1.8869 1.9289 1.3446 0.1801 5.0848
7.90 -1.150 -1.25 35.7583 0.2403 1.4216 1.9221 1.3692 0.1359 5.1414
7.90 -0.900 -1.50 39.6540 0.3870 2.2736 1.9957 0.8924 0.3146 4.1432
7.90 -1.025 -1.50 39.6981 0.2919 1.7088 1.9842 0.9131 0.2372 4.1964
7.90 -1.150 -1.50 39.7361 0.2195 1.2789 1.9770 0.9280 0.1779 4.2312
7.90 -0.900 -1.75 42.0669 0.2745 2.1156 2.0726 0.6343 0.4258 3.8311
7.90 -1.025 -1.75 42.2013 0.2080 1.5887 2.0613 0.6433 0.3204 3.8556
7.90 -1.150 -1.75 42.3092 0.1572 1.1883 2.0529 0.6500 0.2400 3.8727
7.90 -0.900 -2.00 43.0788 0.1482 1.7220 2.1507 0.5057 0.5194 3.9319
7.90 -1.025 -2.00 43.1772 0.1135 1.2993 2.1470 0.5106 0.3909 3.9375
7.90 -1.150 -2.00 43.2927 0.0867 0.9755 2.1405 0.5145 0.2932 3.9471
7.90 -0.900 -2.25 42.7319 0.0588 1.1856 2.2245 0.4348 0.5606 4.3025
7.90 -1.025 -2.25 42.8736 0.0454 0.8946 2.2199 0.4376 0.4216 4.3072
7.90 -1.150 -2.25 42.9812 0.0351 0.6739 2.2162 0.4398 0.3165 4.3109
7.90 -0.900 -2.50 41.4071 0.0176 0.6573 2.2580 0.3792 0.5349 4.8084
7.90 -1.025 -2.50 41.3349 0.0139 0.5021 2.2700 0.3828 0.4043 4.8104
7.90 -1.150 -2.50 41.4245 0.0109 0.3797 2.2670 0.3846 0.3041 4.8150
7.90 -0.900 -2.75 39.0509 0.0043 0.2892 2.2434 0.3190 0.4520 5.1987
7.90 -1.025 -2.75 39.3127 0.0032 0.2196 2.2491 0.3214 0.3414 5.2253
7.90 -1.150 -2.75 39.2127 0.0016 0.1661 2.2420 0.3215 0.2560 5.2112
7.90 -0.900 -3.00 37.3362 0.0000 0.0978 2.0766 0.2342 0.3353 5.0286
7.90 -1.025 -3.00 37.2964 0.0000 0.0766 2.1044 0.2389 0.2555 5.0906
7.90 -1.150 -3.00 37.4053 0.0000 0.0566 2.0743 0.2354 0.1894 5.0327
7.90 -0.900 -3.25 35.1388 0.0000 0.0283 1.7636 0.1379 0.2231 3.9034
7.90 -1.025 -3.25 35.1799 0.0000 0.0215 1.7631 0.1383 0.1677 3.9070
7.90 -1.150 -3.25 35.2147 0.0000 0.0163 1.7627 0.1387 0.1261 3.9101
7.90 -0.900 -3.50 69.4973 0.0000 0.0065 1.2713 0.0550 0.1429 1.9702
7.90 -1.025 -3.50 69.5551 0.0000 0.0048 1.2714 0.0551 0.1074 1.9726
7.90 -1.150 -3.50 69.5985 0.0000 0.0036 1.2715 0.0553 0.0808 1.9744
7.90 -0.900 -3.75 67.7343 0.0000 0.0000 0.8309 0.0153 0.0761 0.7431
7.90 -1.025 -3.75 67.7902 0.0000 0.0000 0.8310 0.0154 0.0573 0.7441
7.90 -1.150 -3.75 67.8323 0.0000 0.0000 0.8311 0.0154 0.0431 0.7448
7.90 -0.900 -4.00 66.2541 0.0000 0.0000 0.5161 0.0027 0.0380 0.2378
7.90 -1.025 -4.00 66.3065 0.0000 0.0000 0.5161 0.0027 0.0286 0.2381
7.90 -1.150 -4.00 66.3459 0.0000 0.0000 0.5162 0.0027 0.0215 0.2384
8.00 -0.650 -0.50 26.4544 0.2809 5.2281 1.9371 0.9790 0.0923 7.9075
8.00 -0.775 -0.50 26.5315 0.2061 4.2076 1.9276 1.0689 0.0737 8.2113
8.00 -0.900 -0.50 26.5482 0.1526 3.3532 1.9208 1.1480 0.0583 8.4719
8.00 -1.025 -0.50 26.6462 0.1141 2.6453 1.9181 1.2156 0.0459 8.6800
8.00 -1.150 -0.50 26.6436 0.0859 2.0687 1.9127 1.2731 0.0358 8.8660
8.00 -0.650 -0.75 28.0623 0.4498 5.7552 1.9908 1.3456 0.1846 7.6275
8.00 -0.775 -0.75 28.1792 0.3356 4.6094 1.9801 1.4404 0.1474 7.8793
8.00 -0.900 -0.75 28.2023 0.2505 3.6509 1.9669 1.5222 0.1165 8.1188
8.00 -1.025 -0.75 28.3021 0.1879 2.8579 1.9621 1.5893 0.0911 8.2830
8.00 -1.150 -0.75 28.2968 0.1409 2.2184 1.9524 1.6441 0.0707 8.4471
8.00 -0.650 -1.00 31.1278 0.7193 5.6379 2.0358 1.5082 0.3233 6.6438
8.00 -0.775 -1.00 31.1942 0.5408 4.4103 2.0183 1.5842 0.2533 6.8345
8.00 -0.900 -1.00 31.2697 0.4056 3.4138 2.0049 1.6441 0.1966 6.9788
8.00 -1.025 -1.00 31.2985 0.3040 2.6302 1.9940 1.6951 0.1515 7.1083
8.00 -1.150 -1.00 31.3649 0.2274 2.0084 1.9861 1.7335 0.1160 7.1957
8.00 -0.650 -1.25 35.0197 0.8572 4.9331 2.0572 1.2812 0.4561 5.5727
8.00 -0.775 -1.25 35.0757 0.6515 3.7727 2.0405 1.3358 0.3501 5.7052
8.00 -0.900 -1.25 35.1025 0.4931 2.8724 2.0263 1.3816 0.2674 5.8208
8.00 -1.025 -1.25 35.1419 0.3718 2.1733 2.0177 1.4152 0.2029 5.8955
8.00 -1.150 -1.25 35.1676 0.2793 1.6385 2.0099 1.4426 0.1533 5.9609
8.00 -0.650 -1.50 38.4646 0.7727 4.7180 2.0945 0.9340 0.6430 4.8556
8.00 -0.775 -1.50 38.5881 0.5922 3.5852 2.0786 0.9679 0.4890 4.9367
8.00 -0.900 -1.50 38.6468 0.4514 2.7147 2.0667 0.9971 0.3706 5.0084
8.00 -1.025 -1.50 38.7115 0.3417 2.0445 2.0576 1.0195 0.2796 5.0603
8.00 -1.150 -1.50 38.7678 0.2573 1.5334 2.0487 1.0371 0.2102 5.1059
8.00 -0.650 -1.75 40.5616 0.5449 4.3885 2.1514 0.7088 0.8822 4.6679
8.00 -0.775 -1.75 40.7775 0.4195 3.3418 2.1354 0.7270 0.6699 4.7107
8.00 -0.900 -1.75 40.8919 0.3216 2.5377 2.1285 0.7422 0.5068 4.7365
8.00 -1.025 -1.75 41.0479 0.2441 1.9104 2.1167 0.7533 0.3819 4.7671
8.00 -1.150 -1.75 41.1643 0.1848 1.4330 2.1078 0.7622 0.2868 4.7906
8.00 -0.650 -2.00 41.3105 0.2872 3.5486 2.2181 0.5828 1.0780 4.8584
8.00 -0.775 -2.00 41.5248 0.2233 2.7186 2.2101 0.5939 0.8194 4.8737
8.00 -0.900 -2.00 41.7763 0.1717 2.0607 2.1983 0.6018 0.6197 4.8921
8.00 -1.025 -2.00 41.9554 0.1315 1.5542 2.1875 0.6081 0.4672 4.9117
8.00 -1.150 -2.00 42.1189 0.1003 1.1672 2.1830 0.6116 0.3505 4.9160
8.00 -0.650 -2.25 40.8585 0.1100 2.4144 2.2784 0.5053 1.1622 5.3312
8.00 -0.775 -2.25 41.1415 0.0858 1.8443 2.2678 0.5123 0.8821 5.3474
8.00 -0.900 -2.25 41.3012 0.0668 1.4036 2.2662 0.5178 0.6673 5.3529
8.00 -1.025 -2.25 41.4656 0.0518 1.0624 2.2627 0.5222 0.5031 5.3628
8.00 -1.150 -2.25 41.6265 0.0398 0.7991 2.2539 0.5246 0.3778 5.3710
8.00 -0.650 -2.50 39.5396 0.0317 1.3196 2.2989 0.4388 1.1058 5.9341
8.00 -0.775 -2.50 39.6679 0.0252 1.0122 2.3010 0.4445 0.8392 5.9465
8.00 -0.900 -2.50 39.8129 0.0198 0.7702 2.2976 0.4486 0.6341 5.9569
8.00 -1.025 -2.50 39.9772 0.0155 0.5823 2.2929 0.4512 0.4775 5.9672
8.00 -1.150 -2.50 40.2738 0.0121 0.4376 2.2869 0.4534 0.3591 5.9915
8.00 -0.650 -2.75 37.3326 0.0078 0.5680 2.2641 0.3646 0.9252 6.3654
8.00 -0.775 -2.75 37.5757 0.0060 0.4307 2.2580 0.3676 0.6988 6.3836
8.00 -0.900 -2.75 37.8172 0.0047 0.3243 2.2457 0.3688 0.5256 6.3870
8.00 -1.025 -2.75 37.7166 0.0037 0.2494 2.2590 0.3725 0.3977 6.4049
8.00 -1.150 -2.75 37.8602 0.0018 0.1886 2.2548 0.3736 0.2991 6.4130
8.00 -0.650 -3.00 35.5193 0.0000 0.1930 2.1078 0.2673 0.6883 6.1572
8.00 -0.775 -3.00 35.4594 0.0000 0.1454 2.0883 0.2670 0.5153 6.1196
8.00 -0.900 -3.00 35.4190 0.0000 0.1116 2.0899 0.2691 0.3886 6.1329
8.00 -1.025 -3.00 35.6703 0.0000 0.0836 2.0764 0.2683 0.2911 6.1146
8.00 -1.150 -3.00 35.6026 0.0000 0.0645 2.0839 0.2706 0.2197 6.1400
8.00 -0.650 -3.25 33.5963 0.0000 0.0542 1.7630 0.1543 0.4513 4.7085
8.00 -0.775 -3.25 33.6885 0.0000 0.0415 1.7628 0.1555 0.3406 4.7209
8.00 -0.900 -3.25 33.7592 0.0000 0.0317 1.7627 0.1563 0.2567 4.7304
8.00 -1.025 -3.25 33.8332 0.0000 0.0242 1.7643 0.1572 0.1934 4.7422
8.00 -1.150 -3.25 33.8477 0.0000 0.0183 1.7620 0.1575 0.1453 4.7413
8.00 -0.650 -3.50 67.8412 0.0000 0.0130 1.2686 0.0625 0.2929 2.3907
8.00 -0.775 -3.50 67.9594 0.0000 0.0098 1.2688 0.0630 0.2211 2.3974
8.00 -0.900 -3.50 68.0487 0.0000 0.0074 1.2690 0.0634 0.1667 2.4024
8.00 -1.025 -3.50 68.1160 0.0000 0.0056 1.2692 0.0637 0.1254 2.4062
8.00 -1.150 -3.50 68.1667 0.0000 0.0042 1.2693 0.0639 0.0943 2.4090
8.00 -0.650 -3.75 66.2262 0.0000 0.0015 0.8285 0.0174 0.1561 0.9020
8.00 -0.775 -3.75 66.3481 0.0000 0.0011 0.8288 0.0176 0.1179 0.9048
8.00 -0.900 -3.75 66.4356 0.0000 0.0000 0.8290 0.0177 0.0889 0.9068
8.00 -1.025 -3.75 66.5031 0.0000 0.0000 0.8291 0.0178 0.0669 0.9083
8.00 -1.150 -3.75 66.5524 0.0000 0.0000 0.8293 0.0178 0.0503 0.9094
8.00 -0.650 -4.00 64.7206 0.0000 0.0000 0.5136 0.0042 0.0776 0.2881
8.00 -0.775 -4.00 64.8294 0.0000 0.0000 0.5138 0.0042 0.0586 0.2889
8.00 -0.900 -4.00 64.9117 0.0000 0.0000 0.5139 0.0042 0.0442 0.2896
8.00 -1.025 -4.00 64.9737 0.0000 0.0000 0.5140 0.0042 0.0333 0.2900
8.00 -1.150 -4.00 65.0203 0.0000 0.0000 0.5141 0.0043 0.0250 0.2904
8.10 -0.650 -0.50 26.0224 0.3315 5.0764 1.9839 0.8003 0.0862 8.4417
8.10 -0.775 -0.50 26.0718 0.2432 4.0425 1.9772 0.8763 0.0679 8.7606
8.10 -0.900 -0.50 26.1291 0.1799 3.1919 1.9712 0.9437 0.0531 9.0326
8.10 -1.025 -0.50 26.1695 0.1339 2.5005 1.9660 1.0016 0.0414 9.2604
8.10 -1.150 -0.50 26.2230 0.1004 1.9425 1.9624 1.0500 0.0321 9.4434
8.10 -0.650 -0.75 27.5865 0.5127 5.6530 2.0956 1.1788 0.1734 8.3477
8.10 -0.775 -0.75 27.6526 0.3815 4.5003 2.0827 1.2756 0.1374 8.6505
8.10 -0.900 -0.75 27.7124 0.2848 3.5427 2.0731 1.3561 0.1078 8.8937
8.10 -1.025 -0.75 27.7764 0.2133 2.7665 2.0655 1.4248 0.0841 9.0969
8.10 -1.150 -0.75 27.7529 0.1601 2.1415 2.0587 1.4794 0.0650 9.2643
8.10 -0.650 -1.00 30.6005 0.8172 5.9925 2.1565 1.4608 0.3309 7.4421
8.10 -0.775 -1.00 30.6978 0.6147 4.6716 2.1396 1.5433 0.2585 7.6542
8.10 -0.900 -1.00 30.7626 0.4619 3.6178 2.1251 1.6122 0.2006 7.8379
8.10 -1.025 -1.00 30.8228 0.3467 2.7770 2.1157 1.6653 0.1542 7.9693
8.10 -1.150 -1.00 30.8539 0.2599 2.1222 2.1065 1.7090 0.1181 8.0852
8.10 -0.650 -1.25 34.1832 0.9755 5.6424 2.1585 1.3079 0.5074 6.4208
8.10 -0.775 -1.25 34.2764 0.7420 4.3168 2.1415 1.3671 0.3895 6.5698
8.10 -0.900 -1.25 34.3458 0.5626 3.2846 2.1272 1.4152 0.2974 6.6953
8.10 -1.025 -1.25 34.3837 0.4252 2.4892 2.1179 1.4534 0.2258 6.7877
8.10 -1.150 -1.25 34.4261 0.3199 1.8781 2.1088 1.4835 0.1709 6.8675
8.10 -0.650 -1.50 37.1855 0.8860 5.5428 2.1773 1.0225 0.7431 5.8316
8.10 -0.775 -1.50 37.3529 0.6804 4.2234 2.1589 1.0617 0.5668 5.9363
8.10 -0.900 -1.50 37.4566 0.5200 3.2033 2.1473 1.0935 0.4299 6.0134
8.10 -1.025 -1.50 37.5710 0.3944 2.4139 2.1356 1.1168 0.3247 6.0744
8.10 -1.150 -1.50 37.6268 0.2979 1.8152 2.1282 1.1370 0.2445 6.1253
8.10 -0.650 -1.75 39.0317 0.6217 5.1516 2.2183 0.8116 1.0272 5.7275
8.10 -0.775 -1.75 39.2641 0.4826 3.9450 2.2045 0.8343 0.7824 5.7795
8.10 -0.900 -1.75 39.5278 0.3692 2.9889 2.1874 0.8509 0.5927 5.8285
8.10 -1.025 -1.75 39.6275 0.2823 2.2656 2.1816 0.8667 0.4479 5.8593
8.10 -1.150 -1.75 39.7832 0.2140 1.7033 2.1707 0.8784 0.3373 5.8976
8.10 -0.650 -2.00 39.6799 0.3213 4.1243 2.2676 0.6795 1.2579 6.0214
8.10 -0.775 -2.00 39.9603 0.2508 3.1695 2.2594 0.6931 0.9579 6.0412
8.10 -0.900 -2.00 40.2647 0.1935 2.4094 2.2456 0.7025 0.7253 6.0664
8.10 -1.025 -2.00 40.4057 0.1491 1.8295 2.2413 0.7115 0.5482 6.0798
8.10 -1.150 -2.00 40.5912 0.1141 1.3795 2.2325 0.7192 0.4133 6.1071
8.10 -0.650 -2.25 39.2689 0.1187 2.7420 2.3079 0.5864 1.3466 6.6088
8.10 -0.775 -2.25 39.4983 0.0934 2.1103 2.3058 0.5959 1.0247 6.6234
8.10 -0.900 -2.25 39.7078 0.0729 1.6094 2.3013 0.6029 0.7762 6.6361
8.10 -1.025 -2.25 39.8927 0.0568 1.2239 2.2923 0.6104 0.5876 6.6601
8.10 -1.150 -2.25 40.0175 0.0439 0.9242 2.2929 0.6138 0.4419 6.6605
8.10 -0.650 -2.50 37.7071 0.0338 1.4854 2.3343 0.5045 1.2735 7.2907
8.10 -0.775 -2.50 37.9352 0.0267 1.1367 2.3310 0.5113 0.9669 7.3152
8.10 -0.900 -2.50 38.2290 0.0209 0.8609 2.3202 0.5159 0.7305 7.3429
8.10 -1.025 -2.50 38.2707 0.0166 0.6570 2.3230 0.5207 0.5521 7.3495
8.10 -1.150 -2.50 38.5457 0.0129 0.4912 2.3089 0.5218 0.4141 7.3672
8.10 -0.650 -2.75 35.7014 0.0083 0.6204 2.2758 0.4099 1.0500 7.7485
8.10 -0.775 -2.75 35.8678 0.0065 0.4730 2.2731 0.4146 0.7953 7.7728
8.10 -0.900 -2.75 35.9799 0.0051 0.3601 2.2739 0.4183 0.6009 7.7945
8.10 -1.025 -2.75 36.1090 0.0040 0.2727 2.2703 0.4204 0.4526 7.8079
8.10 -1.150 -2.75 36.0603 0.0031 0.2087 2.2782 0.4236 0.3416 7.8214
8.10 -0.650 -3.00 33.6510 0.0010 0.2069 2.0987 0.2935 0.7686 7.3735
8.10 -0.775 -3.00 33.7921 0.0000 0.1561 2.0894 0.2945 0.5783 7.3604
8.10 -0.900 -3.00 33.9033 0.0000 0.1190 2.0877 0.2965 0.4362 7.3749
8.10 -1.025 -3.00 33.9256 0.0000 0.0912 2.0917 0.2987 0.3291 7.3987
8.10 -1.150 -3.00 34.0141 0.0000 0.0694 2.0879 0.2994 0.2474 7.3998
8.10 -0.650 -3.25 31.9938 0.0000 0.0579 1.7591 0.1680 0.5015 5.6173
8.10 -0.775 -3.25 32.0947 0.0000 0.0445 1.7591 0.1696 0.3791 5.6363
8.10 -0.900 -3.25 32.1694 0.0000 0.0341 1.7593 0.1709 0.2862 5.6511
8.10 -1.025 -3.25 32.2269 0.0000 0.0261 1.7594 0.1717 0.2155 5.6622
8.10 -1.150 -3.25 32.2721 0.0000 0.0199 1.7594 0.1725 0.1623 5.6707
8.10 -0.650 -3.50 66.0143 0.0000 0.0144 1.2642 0.0695 0.3305 2.8742
8.10 -0.775 -3.50 66.1476 0.0000 0.0109 1.2646 0.0702 0.2499 2.8846
8.10 -0.900 -3.50 66.2486 0.0000 0.0083 1.2649 0.0707 0.1887 2.8925
8.10 -1.025 -3.50 66.3248 0.0000 0.0062 1.2651 0.0711 0.1421 2.8984
8.10 -1.150 -3.50 66.3822 0.0000 0.0047 1.2652 0.0714 0.1070 2.9028
8.10 -0.650 -3.75 64.4690 0.0000 0.0016 0.8241 0.0193 0.1755 1.0826
8.10 -0.775 -3.75 64.6011 0.0000 0.0012 0.8245 0.0196 0.1329 1.0868
8.10 -0.900 -3.75 64.7010 0.0000 0.0000 0.8248 0.0197 0.1003 1.0899
8.10 -1.025 -3.75 64.7765 0.0000 0.0000 0.8250 0.0198 0.0756 1.0923
8.10 -1.150 -3.75 64.8333 0.0000 0.0000 0.8251 0.0199 0.0569 1.0941
8.10 -0.650 -4.00 62.9678 0.0000 0.0000 0.5102 0.0046 0.0866 0.3450
8.10 -0.775 -4.00 63.0925 0.0000 0.0000 0.5104 0.0046 0.0655 0.3463
8.10 -0.900 -4.00 63.1867 0.0000 0.0000 0.5106 0.0047 0.0495 0.3473
8.10 -1.025 -4.00 63.2577 0.0000 0.0000 0.5108 0.0047 0.0373 0.3480
8.10 -1.150 -4.00 63.3112 0.0000 0.0000 0.5109 0.0047 0.0281 0.3486
8.20 -0.400 -0.50 25.4927 0.6408 7.4438 2.0537 0.5530 0.1339 8.2746
8.20 -0.525 -0.50 25.5611 0.4711 5.9851 2.0413 0.6196 0.1053 8.6761
8.20 -0.650 -0.50 25.6002 0.3466 4.7771 2.0309 0.6840 0.0825 9.0402
8.20 -0.775 -0.50 25.6371 0.2559 3.7801 2.0230 0.7429 0.0643 9.3524
8.20 -0.900 -0.50 25.6662 0.1898 2.9690 2.0169 0.7961 0.0500 9.6207
8.20 -0.400 -0.75 26.8035 1.0058 8.4904 2.2101 0.7705 0.2619 8.1571
8.20 -0.525 -0.75 26.9044 0.7440 6.8521 2.1965 0.8826 0.2088 8.6029
8.20 -0.650 -0.75 26.9832 0.5521 5.4777 2.1855 0.9846 0.1654 8.9857
8.20 -0.775 -0.75 27.0831 0.4112 4.3424 2.1764 1.0770 0.1302 9.3150
8.20 -0.900 -0.75 27.1927 0.3073 3.4130 2.1698 1.1565 0.1019 9.5886
8.20 -0.400 -1.00 29.6201 1.5932 10.1427 2.3195 1.1388 0.5398 7.6089
8.20 -0.525 -1.00 29.7982 1.1993 8.0226 2.2942 1.2596 0.4285 7.9596
8.20 -0.650 -1.00 29.9221 0.9026 6.2888 2.2746 1.3625 0.3367 8.2531
8.20 -0.775 -1.00 30.0219 0.6790 4.8960 2.2583 1.4513 0.2626 8.5026
8.20 -0.900 -1.00 30.1138 0.5107 3.7813 2.2451 1.5237 0.2032 8.7013
8.20 -0.400 -1.25 32.7491 1.8676 10.6233 2.3100 1.1487 0.9219 6.9385
8.20 -0.525 -1.25 32.9893 1.4315 8.2345 2.2829 1.2367 0.7184 7.1785
8.20 -0.650 -1.25 33.1372 1.0934 6.3461 2.2624 1.3131 0.5551 7.3848
8.20 -0.775 -1.25 33.2677 0.8318 4.8574 2.2444 1.3763 0.4266 7.5590
8.20 -0.900 -1.25 33.3763 0.6312 3.6972 2.2304 1.4266 0.3259 7.6921
8.20 -0.400 -1.50 35.1683 1.6504 10.7113 2.3050 0.9896 1.4126 6.6770
8.20 -0.525 -1.50 35.4817 1.2911 8.3089 2.2808 1.0499 1.0945 6.8384
8.20 -0.650 -1.50 35.7326 1.0005 6.3919 2.2596 1.1018 0.8419 6.9812
8.20 -0.775 -1.50 35.9188 0.7703 4.8849 2.2439 1.1446 0.6431 7.0946
8.20 -0.900 -1.50 36.0633 0.5896 3.7114 2.2289 1.1800 0.4891 7.1976
8.20 -0.400 -1.75 36.5623 1.1049 9.7999 2.3171 0.8418 1.9699 6.8403
8.20 -0.525 -1.75 36.9786 0.8831 7.6706 2.3003 0.8805 1.5269 6.9241
8.20 -0.650 -1.75 37.3435 0.6957 5.9394 2.2813 0.9145 1.1750 7.0154
8.20 -0.775 -1.75 37.6154 0.5422 4.5613 2.2677 0.9409 0.8970 7.0763
8.20 -0.900 -1.75 37.8569 0.4180 3.4761 2.2534 0.9628 0.6815 7.1381
8.20 -0.400 -2.00 36.8853 0.5423 7.6686 2.3491 0.7294 2.4166 7.3008
8.20 -0.525 -2.00 37.4687 0.4376 6.0152 2.3300 0.7545 1.8711 7.3675
8.20 -0.650 -2.00 37.8804 0.3491 4.6874 2.3170 0.7768 1.4388 7.4171
8.20 -0.775 -2.00 38.2242 0.2741 3.6144 2.3060 0.7936 1.0981 7.4533
8.20 -0.900 -2.00 38.4545 0.2136 2.7738 2.2989 0.8086 0.8353 7.4833
8.20 -0.400 -2.25 36.4948 0.1924 4.9717 2.3618 0.6339 2.5889 8.0290
8.20 -0.525 -2.25 36.9602 0.1558 3.9135 2.3551 0.6524 1.9972 8.0784
8.20 -0.650 -2.25 37.2680 0.1250 3.0620 2.3519 0.6690 1.5335 8.1167
8.20 -0.775 -2.25 37.5900 0.0987 2.3625 2.3455 0.6813 1.1692 8.1509
8.20 -0.900 -2.25 37.8579 0.0772 1.8055 2.3377 0.6899 0.8868 8.1763
8.20 -0.400 -2.50 35.3002 0.0525 2.6226 2.3524 0.5379 2.4241 8.7856
8.20 -0.525 -2.50 35.5452 0.0427 2.0631 2.3600 0.5521 1.8641 8.8362
8.20 -0.650 -2.50 35.7885 0.0344 1.6050 2.3635 0.5643 1.4271 8.8854
8.20 -0.775 -2.50 36.0465 0.0272 1.2297 2.3565 0.5723 1.0842 8.9215
8.20 -0.900 -2.50 36.4043 0.0214 0.9318 2.3404 0.5785 0.8207 8.9647
8.20 -0.400 -2.75 33.3954 0.0128 1.0928 2.2899 0.4289 1.9891 9.2112
8.20 -0.525 -2.75 33.6052 0.0104 0.8500 2.2956 0.4392 1.5235 9.2828
8.20 -0.650 -2.75 33.8341 0.0084 0.6521 2.2911 0.4464 1.1590 9.3272
8.20 -0.775 -2.75 33.9386 0.0067 0.5010 2.2928 0.4530 0.8799 9.3636
8.20 -0.900 -2.75 34.2002 0.0053 0.3769 2.2818 0.4559 0.6636 9.3881
8.20 -0.400 -3.00 31.5714 0.0018 0.3553 2.0959 0.3005 1.4375 8.6256
8.20 -0.525 -3.00 31.6823 0.0014 0.2751 2.0973 0.3062 1.0953 8.6801
8.20 -0.650 -3.00 31.9873 0.0011 0.2098 2.0969 0.3107 0.8330 8.7315
8.20 -0.775 -3.00 31.8863 0.0000 0.1640 2.1113 0.3162 0.6328 8.7988
8.20 -0.900 -3.00 31.9513 0.0000 0.1251 2.1068 0.3182 0.4771 8.8080
8.20 -0.400 -3.25 30.2242 0.0000 0.0955 1.7400 0.1681 0.9265 6.4595
8.20 -0.525 -3.25 30.4247 0.0000 0.0741 1.7397 0.1716 0.7076 6.5045
8.20 -0.650 -3.25 30.5352 0.0000 0.0575 1.7410 0.1741 0.5373 6.5409
8.20 -0.775 -3.25 30.6374 0.0000 0.0444 1.7415 0.1761 0.4071 6.5694
8.20 -0.900 -3.25 30.7485 0.0000 0.0342 1.7406 0.1777 0.3078 6.5883
8.20 -0.400 -3.50 63.6055 0.0000 0.0266 1.2555 0.0722 0.6240 3.3663
8.20 -0.525 -3.50 63.8549 0.0000 0.0205 1.2566 0.0738 0.4771 3.3942
8.20 -0.650 -3.50 64.0460 0.0000 0.0155 1.2574 0.0750 0.3630 3.4153
8.20 -0.775 -3.50 64.1916 0.0000 0.0118 1.2580 0.0759 0.2752 3.4313
8.20 -0.900 -3.50 64.3022 0.0000 0.0089 1.2585 0.0766 0.2081 3.4433
8.20 -0.400 -3.75 62.1524 0.0000 0.0045 0.8163 0.0200 0.3295 1.2642
8.20 -0.525 -3.75 62.3463 0.0000 0.0035 0.8166 0.0204 0.2521 1.2743
8.20 -0.650 -3.75 62.5887 0.0000 0.0018 0.8180 0.0208 0.1922 1.2843
8.20 -0.775 -3.75 62.7354 0.0000 0.0013 0.8186 0.0211 0.1459 1.2909
8.20 -0.900 -3.75 62.8475 0.0000 0.0010 0.8190 0.0213 0.1104 1.2958
8.20 -0.400 -4.00 60.3279 0.0000 0.0000 0.4979 0.0046 0.1594 0.3962
8.20 -0.525 -4.00 60.5693 0.0000 0.0000 0.4986 0.0047 0.1222 0.3998
8.20 -0.650 -4.00 61.0241 0.0000 0.0000 0.5048 0.0048 0.0938 0.4074
8.20 -0.775 -4.00 61.1628 0.0000 0.0000 0.5052 0.0050 0.0712 0.4095
8.20 -0.900 -4.00 61.2682 0.0000 0.0000 0.5055 0.0050 0.0539 0.4110
8.30 -0.400 -0.50 25.0978 0.5941 6.4818 2.0989 0.4868 0.1217 8.9276
8.30 -0.525 -0.50 25.1478 0.4390 5.1984 2.0911 0.5372 0.0955 9.2885
8.30 -0.650 -0.50 25.2134 0.3250 4.1415 2.0837 0.5856 0.0746 9.6194
8.30 -0.775 -0.50 25.2349 0.2414 3.2706 2.0783 0.6292 0.0581 9.9019
8.30 -0.900 -0.50 25.2728 0.1801 2.5646 2.0751 0.6683 0.0451 10.1422
8.30 -0.400 -0.75 26.2656 1.0082 7.7901 2.2819 0.5963 0.2392 8.5655
8.30 -0.525 -0.75 26.3415 0.7496 6.2608 2.2714 0.6789 0.1898 9.0126
8.30 -0.650 -0.75 26.4276 0.5579 4.9956 2.2640 0.7583 0.1495 9.4068
8.30 -0.775 -0.75 26.4991 0.4162 3.9498 2.2582 0.8308 0.1172 9.7452
8.30 -0.900 -0.75 26.5472 0.3113 3.0953 2.2532 0.8940 0.0912 10.0293
8.30 -0.400 -1.00 28.6895 1.6893 10.2848 2.4283 0.9516 0.5228 8.2286
8.30 -0.525 -1.00 28.8774 1.2760 8.1448 2.4088 1.0677 0.4156 8.6198
8.30 -0.650 -1.00 29.0287 0.9613 6.3899 2.3922 1.1699 0.3271 8.9510
8.30 -0.775 -1.00 29.1594 0.7237 4.9731 2.3785 1.2578 0.2554 9.2280
8.30 -0.900 -1.00 29.2465 0.5447 3.8393 2.3675 1.3292 0.1974 9.4470
8.30 -0.400 -1.25 31.3566 2.0512 11.6164 2.4137 1.0918 0.9688 7.9064
8.30 -0.525 -1.25 31.6304 1.5753 9.0366 2.3896 1.1834 0.7580 8.1805
8.30 -0.650 -1.25 31.8451 1.2041 6.9768 2.3699 1.2618 0.5880 8.4101
8.30 -0.775 -1.25 31.9826 0.9171 5.3539 2.3545 1.3280 0.4523 8.6039
8.30 -0.900 -1.25 32.1040 0.6961 4.0824 2.3415 1.3807 0.3461 8.7584
8.30 -0.400 -1.50 33.3582 1.8218 11.9824 2.3868 1.0274 1.5404 7.9283
8.30 -0.525 -1.50 33.7365 1.4298 9.3282 2.3630 1.0925 1.1996 8.1211
8.30 -0.650 -1.50 34.0089 1.1129 7.2074 2.3473 1.1477 0.9251 8.2661
8.30 -0.775 -1.50 34.1983 0.8594 5.5298 2.3329 1.1954 0.7087 8.4038
8.30 -0.900 -1.50 34.3752 0.6592 4.2131 2.3206 1.2335 0.5400 8.5101
8.30 -0.400 -1.75 34.4981 1.1894 10.9151 2.3817 0.9153 2.1693 8.2728
8.30 -0.525 -1.75 34.9906 0.9561 8.5778 2.3616 0.9606 1.6908 8.4013
8.30 -0.650 -1.75 35.3309 0.7600 6.6869 2.3514 0.9988 1.3049 8.4833
8.30 -0.775 -1.75 35.6511 0.5949 5.1529 2.3370 1.0299 0.9999 8.5696
8.30 -0.900 -1.75 35.8690 0.4620 3.9494 2.3275 1.0568 0.7619 8.6374
8.30 -0.400 -2.00 34.7814 0.5538 8.3326 2.3939 0.8045 2.6625 8.8898
8.30 -0.525 -2.00 35.3596 0.4519 6.5873 2.3760 0.8363 2.0722 8.9906
8.30 -0.650 -2.00 35.8020 0.3633 5.1554 2.3657 0.8619 1.5979 9.0518
8.30 -0.775 -2.00 36.1102 0.2882 4.0026 2.3577 0.8839 1.2241 9.1049
8.30 -0.900 -2.00 36.3802 0.2257 3.0812 2.3511 0.9014 0.9327 9.1446
8.30 -0.400 -2.25 34.3495 0.1869 5.2221 2.3923 0.6928 2.8278 9.7294
8.30 -0.525 -2.25 34.7458 0.1535 4.1508 2.3920 0.7166 2.1919 9.7974
8.30 -0.650 -2.25 35.1587 0.1231 3.2449 2.3823 0.7356 1.6847 9.8728
8.30 -0.775 -2.25 35.4219 0.0982 2.5241 2.3804 0.7521 1.2890 9.9204
8.30 -0.900 -2.25 35.6535 0.0774 1.9429 2.3792 0.7640 0.9804 9.9520
8.30 -0.400 -2.50 33.1261 0.0496 2.6713 2.3760 0.5755 2.6079 10.5203
8.30 -0.525 -2.50 33.4497 0.0404 2.1022 2.3760 0.5923 2.0094 10.6066
8.30 -0.650 -2.50 33.7341 0.0326 1.6380 2.3788 0.6065 1.5400 10.6833
8.30 -0.775 -2.50 33.9938 0.0259 1.2586 2.3686 0.6164 1.1720 10.7355
8.30 -0.900 -2.50 34.0361 0.0209 0.9706 2.3792 0.6253 0.8905 10.7617
8.30 -0.400 -2.75 31.4802 0.0120 1.0693 2.2888 0.4425 2.0960 10.8625
8.30 -0.525 -2.75 31.7370 0.0099 0.8308 2.2896 0.4538 1.6067 10.9554
8.30 -0.650 -2.75 31.7209 0.0081 0.6478 2.3045 0.4630 1.2256 11.0182
8.30 -0.775 -2.75 31.8449 0.0066 0.4979 2.3059 0.4701 0.9314 11.0703
8.30 -0.900 -2.75 31.9835 0.0053 0.3804 2.3065 0.4757 0.7057 11.1185
8.30 -0.400 -3.00 29.5742 0.0018 0.3453 2.0993 0.3015 1.4825 10.0180
8.30 -0.525 -3.00 29.8252 0.0014 0.2652 2.0941 0.3080 1.1334 10.0860
8.30 -0.650 -3.00 29.9313 0.0011 0.2051 2.0959 0.3134 0.8627 10.1502
8.30 -0.775 -3.00 30.0472 0.0000 0.1574 2.0970 0.3176 0.6546 10.1998
8.30 -0.900 -3.00 30.5319 0.0000 0.1214 2.1210 0.3246 0.5015 10.3610
8.30 -0.400 -3.25 28.2327 0.0000 0.0949 1.7458 0.1670 0.9405 7.4996
8.30 -0.525 -3.25 28.3850 0.0000 0.0744 1.7474 0.1713 0.7209 7.5702
8.30 -0.650 -3.25 28.5039 0.0000 0.0580 1.7484 0.1747 0.5498 7.6239
8.30 -0.775 -3.25 28.5934 0.0000 0.0450 1.7493 0.1771 0.4174 7.6640
8.30 -0.900 -3.25 28.9699 0.0000 0.0333 1.7316 0.1765 0.3157 7.5940
8.30 -0.400 -3.50 61.2274 0.0000 0.0267 1.2391 0.0720 0.6416 3.8740
8.30 -0.525 -3.50 61.4819 0.0000 0.0206 1.2407 0.0741 0.4931 3.9156
8.30 -0.650 -3.50 61.6782 0.0000 0.0158 1.2419 0.0757 0.3767 3.9473
8.30 -0.775 -3.50 61.8284 0.0000 0.0120 1.2427 0.0769 0.2864 3.9713
8.30 -0.900 -3.50 61.9020 0.0000 0.0091 1.2429 0.0778 0.2169 3.9865
8.30 -0.400 -3.75 59.7176 0.0000 0.0045 0.8001 0.0196 0.3335 1.4410
8.30 -0.525 -3.75 59.9797 0.0000 0.0035 0.8015 0.0202 0.2570 1.4582
8.30 -0.650 -3.75 60.1807 0.0000 0.0018 0.8025 0.0207 0.1968 1.4712
8.30 -0.775 -3.75 60.3348 0.0000 0.0013 0.8033 0.0211 0.1498 1.4810
8.30 -0.900 -3.75 60.4519 0.0000 0.0010 0.8039 0.0213 0.1137 1.4884
8.30 -0.400 -4.00 58.0658 0.0000 0.0000 0.4903 0.0044 0.1585 0.4516
8.30 -0.525 -4.00 58.3149 0.0000 0.0000 0.4912 0.0046 0.1224 0.4572
8.30 -0.650 -4.00 58.5063 0.0000 0.0000 0.4920 0.0047 0.0939 0.4615
8.30 -0.775 -4.00 58.6528 0.0000 0.0000 0.4925 0.0048 0.0715 0.4647
8.30 -0.900 -4.00 58.7640 0.0000 0.0000 0.4929 0.0048 0.0543 0.4671
8.40 -0.400 -0.50 24.7589 0.5233 5.4448 2.1390 0.4278 0.1119 9.5816
8.40 -0.525 -0.50 24.8058 0.3861 4.3504 2.1344 0.4672 0.0870 9.9100
8.40 -0.650 -0.50 24.8283 0.2858 3.4491 2.1294 0.5036 0.0676 10.2036
8.40 -0.775 -0.50 24.8525 0.2127 2.7179 2.1270 0.5373 0.0524 10.4585
8.40 -0.900 -0.50 24.8988 0.1589 2.1238 2.1247 0.5662 0.0404 10.6705
8.40 -0.400 -0.75 25.7150 0.9633 6.6817 2.3321 0.4738 0.2141 8.9943
8.40 -0.525 -0.75 25.7761 0.7171 5.3455 2.3270 0.5318 0.1688 9.4069
8.40 -0.650 -0.75 25.8444 0.5344 4.2443 2.3230 0.5873 0.1324 9.7755
8.40 -0.775 -0.75 25.9033 0.3993 3.3457 2.3203 0.6388 0.1034 10.0925
8.40 -0.900 -0.75 25.9392 0.2986 2.6145 2.3172 0.6842 0.0801 10.3632
8.40 -0.400 -1.00 27.6892 1.7235 9.7198 2.5076 0.7529 0.4785 8.7925
8.40 -0.525 -1.00 27.8680 1.3041 7.7238 2.4958 0.8530 0.3824 9.2055
8.40 -0.650 -1.00 28.0072 0.9836 6.0723 2.4844 0.9428 0.3018 9.5623
8.40 -0.775 -1.00 28.1326 0.7414 4.7410 2.4759 1.0236 0.2363 9.8590
8.40 -0.900 -1.00 28.2259 0.5581 3.6692 2.4684 1.0906 0.1832 10.1037
8.40 -0.400 -1.25 29.8291 2.1957 12.1209 2.4996 0.9914 0.9684 8.9256
8.40 -0.525 -1.25 30.1013 1.6919 9.4758 2.4825 1.0823 0.7611 9.2247
8.40 -0.650 -1.25 30.3262 1.2944 7.3398 2.4660 1.1604 0.5930 9.4851
8.40 -0.775 -1.25 30.4968 0.9859 5.6429 2.4522 1.2257 0.4581 9.7011
8.40 -0.900 -1.25 30.6278 0.7489 4.3148 2.4422 1.2797 0.3513 9.8728
8.40 -0.400 -1.50 31.4629 1.9627 12.9350 2.4555 1.0284 1.6139 9.3228
8.40 -0.525 -1.50 31.8118 1.5500 10.1326 2.4395 1.0970 1.2612 9.5327
8.40 -0.650 -1.50 32.1170 1.2092 7.8534 2.4233 1.1554 0.9775 9.7169
8.40 -0.775 -1.50 32.3524 0.9357 6.0414 2.4112 1.2040 0.7514 9.8629
8.40 -0.900 -1.50 32.5200 0.7194 4.6180 2.4002 1.2449 0.5742 9.9964
8.40 -0.400 -1.75 32.3726 1.2402 11.7703 2.4358 0.9631 2.3094 9.8988
8.40 -0.525 -1.75 32.8323 1.0065 9.3184 2.4225 1.0138 1.8078 10.0471
8.40 -0.650 -1.75 33.2247 0.8027 7.2831 2.4079 1.0567 1.4017 10.1825
8.40 -0.775 -1.75 33.5023 0.6334 5.6467 2.4012 1.0914 1.0770 10.2629
8.40 -0.900 -1.75 33.7550 0.4940 4.3401 2.3895 1.1212 0.8232 10.3621
8.40 -0.400 -2.00 32.5677 0.5423 8.7499 2.4303 0.8591 2.8426 10.6921
8.40 -0.525 -2.00 33.0758 0.4483 6.9814 2.4216 0.8968 2.2221 10.8134
8.40 -0.650 -2.00 33.4892 0.3634 5.4954 2.4124 0.9276 1.7199 10.9111
8.40 -0.775 -2.00 33.8113 0.2911 4.2975 2.4115 0.9552 1.3235 10.9898
8.40 -0.900 -2.00 34.1001 0.2283 3.3047 2.3964 0.9733 1.0084 11.0565
8.40 -0.400 -2.25 32.1318 0.1719 5.2620 2.4155 0.7322 2.9874 11.6297
8.40 -0.525 -2.25 32.6110 0.1410 4.1712 2.4080 0.7585 2.3186 11.7560
8.40 -0.650 -2.25 32.9031 0.1146 3.2919 2.4115 0.7809 1.7877 11.8341
8.40 -0.775 -2.25 33.1026 0.0920 2.5752 2.4134 0.7995 1.3699 11.8963
8.40 -0.900 -2.25 33.2842 0.0731 1.9931 2.4152 0.8142 1.0440 11.9382
8.40 -0.400 -2.50 30.9794 0.0439 2.5708 2.3882 0.5875 2.6993 12.3859
8.40 -0.525 -2.50 31.2886 0.0357 2.0205 2.3900 0.6058 2.0802 12.5035
8.40 -0.650 -2.50 31.5946 0.0288 1.5710 2.3821 0.6207 1.5939 12.6092
8.40 -0.775 -2.50 31.7594 0.0232 1.2183 2.3879 0.6337 1.2168 12.6874
8.40 -0.900 -2.50 31.7831 0.0188 0.9420 2.3967 0.6430 0.9241 12.7146
8.40 -0.400 -2.75 29.3826 0.0109 0.9981 2.3001 0.4351 2.1140 12.5457
8.40 -0.525 -2.75 29.5517 0.0090 0.7785 2.3048 0.4467 1.6215 12.6566
8.40 -0.650 -2.75 29.7803 0.0074 0.5993 2.3000 0.4559 1.2386 12.7497
8.40 -0.775 -2.75 29.7765 0.0061 0.4643 2.3108 0.4630 0.9411 12.8053
8.40 -0.900 -2.75 29.9170 0.0050 0.3536 2.3066 0.4685 0.7129 12.8601
8.40 -0.400 -3.00 27.8464 0.0018 0.3121 2.0854 0.2853 1.4528 11.3553
8.40 -0.525 -3.00 27.9874 0.0014 0.2417 2.0887 0.2926 1.1138 11.4634
8.40 -0.650 -3.00 28.0759 0.0011 0.1872 2.0941 0.2983 0.8492 11.5506
8.40 -0.775 -3.00 28.1880 0.0000 0.1433 2.0910 0.3021 0.6444 11.5966
8.40 -0.900 -3.00 28.2495 0.0000 0.1103 2.0916 0.3058 0.4883 11.6453
8.40 -0.400 -3.25 26.8107 0.0000 0.0843 1.7286 0.1540 0.9034 8.3893
8.40 -0.525 -3.25 26.9113 0.0000 0.0664 1.7298 0.1583 0.6938 8.4743
8.40 -0.650 -3.25 27.0068 0.0000 0.0522 1.7317 0.1618 0.5307 8.5477
8.40 -0.775 -3.25 27.1270 0.0000 0.0409 1.7379 0.1651 0.4050 8.6277
8.40 -0.900 -3.25 27.1375 0.0000 0.0319 1.7350 0.1669 0.3064 8.6509
8.40 -0.400 -3.50 58.9495 0.0000 0.0259 1.2219 0.0683 0.6290 4.3741
8.40 -0.525 -3.50 59.2296 0.0000 0.0200 1.2247 0.0708 0.4867 4.4363
8.40 -0.650 -3.50 59.4194 0.0000 0.0154 1.2263 0.0727 0.3736 4.4814
8.40 -0.775 -3.50 59.5306 0.0000 0.0117 1.2269 0.0741 0.2849 4.5124
8.40 -0.900 -3.50 59.6425 0.0000 0.0089 1.2278 0.0752 0.2164 4.5383
8.40 -0.400 -3.75 57.5503 0.0000 0.0042 0.7866 0.0184 0.3218 1.6189
8.40 -0.525 -3.75 57.8064 0.0000 0.0033 0.7885 0.0191 0.2501 1.6440
8.40 -0.650 -3.75 58.0050 0.0000 0.0017 0.7899 0.0197 0.1927 1.6632
8.40 -0.775 -3.75 58.1579 0.0000 0.0013 0.7909 0.0201 0.1474 1.6777
8.40 -0.900 -3.75 58.2747 0.0000 0.0000 0.7917 0.0204 0.1122 1.6886
8.40 -0.400 -4.00 56.0170 0.0000 0.0000 0.4811 0.0040 0.1482 0.5021
8.40 -0.525 -4.00 56.1709 0.0000 0.0000 0.4817 0.0042 0.1153 0.5096
8.40 -0.650 -4.00 56.3587 0.0000 0.0000 0.4827 0.0043 0.0891 0.5160
8.40 -0.775 -4.00 56.5028 0.0000 0.0000 0.4834 0.0044 0.0683 0.5208
8.40 -0.900 -4.00 56.7013 0.0000 0.0000 0.4847 0.0046 0.0522 0.5253
8.50 -0.400 -0.50 24.4294 0.4541 4.4900 2.1630 0.3648 0.1006 10.1890
8.50 -0.525 -0.50 24.4513 0.3357 3.5719 2.1627 0.3944 0.0771 10.4667
8.50 -0.650 -0.50 24.4888 0.2491 2.8261 2.1618 0.4225 0.0595 10.7244
8.50 -0.775 -0.50 24.5099 0.1857 2.2179 2.1600 0.4472 0.0459 10.9461
8.50 -0.900 -0.50 24.5373 0.1393 1.7250 2.1611 0.4669 0.0351 11.1022
8.50 -0.400 -0.75 25.1661 0.8747 5.4342 2.3584 0.3748 0.1841 9.3824
8.50 -0.525 -0.75 25.2160 0.6525 4.3163 2.3598 0.4113 0.1438 9.7068
8.50 -0.650 -0.75 25.2662 0.4876 3.4070 2.3600 0.4461 0.1119 10.0046
8.50 -0.775 -0.75 25.2959 0.3648 2.6698 2.3578 0.4780 0.0868 10.2793
8.50 -0.900 -0.75 25.3357 0.2737 2.0781 2.3580 0.5057 0.0671 10.4984
8.50 -0.400 -1.00 26.6902 1.6808 8.3343 2.5546 0.5378 0.3982 9.1124
8.50 -0.525 -1.00 26.8177 1.2723 6.6228 2.5500 0.6068 0.3180 9.5134
8.50 -0.650 -1.00 26.9298 0.9610 5.2193 2.5466 0.6714 0.2515 9.8599
8.50 -0.775 -1.00 27.0143 0.7241 4.0777 2.5429 0.7290 0.1968 10.1587
8.50 -0.900 -1.00 27.0877 0.5453 3.1605 2.5396 0.7782 0.1529 10.4010
8.50 -0.400 -1.25 28.2313 2.2737 11.7263 2.5629 0.8093 0.8810 9.7794
8.50 -0.525 -1.25 28.4754 1.7536 9.2133 2.5520 0.8893 0.6979 10.1148
8.50 -0.650 -1.25 28.6732 1.3441 7.1679 2.5429 0.9582 0.5462 10.3861
8.50 -0.775 -1.25 28.8249 1.0246 5.5324 2.5345 1.0169 0.4236 10.6176
8.50 -0.900 -1.25 28.9472 0.7779 4.2422 2.5270 1.0663 0.3263 10.8119
8.50 -0.400 -1.50 29.4315 2.0586 13.2747 2.5127 0.9557 1.5789 10.6892
8.50 -0.525 -1.50 29.7628 1.6329 10.4480 2.5027 1.0220 1.2396 10.9226
8.50 -0.650 -1.50 30.0499 1.2782 8.1318 2.4922 1.0786 0.9648 11.1240
8.50 -0.775 -1.50 30.2519 0.9920 6.2812 2.4847 1.1268 0.7438 11.2890
8.50 -0.900 -1.50 30.4174 0.7641 4.8153 2.4773 1.1656 0.5699 11.4268
8.50 -0.400 -1.75 30.1769 1.2399 12.1090 2.4733 0.9585 2.3365 11.6324
8.50 -0.525 -1.75 30.6035 1.0127 9.6303 2.4638 1.0103 1.8350 11.8150
8.50 -0.650 -1.75 30.9082 0.8148 7.5812 2.4623 1.0542 1.4253 11.9298
8.50 -0.775 -1.75 31.1586 0.6466 5.9033 2.4570 1.0904 1.0982 12.0406
8.50 -0.900 -1.75 31.3947 0.5060 4.5490 2.4479 1.1205 0.8412 12.1553
8.50 -0.400 -2.00 30.3105 0.4967 8.6981 2.4510 0.8728 2.8961 12.6411
8.50 -0.525 -2.00 30.7172 0.4134 6.9730 2.4498 0.9125 2.2666 12.7843
8.50 -0.650 -2.00 31.0224 0.3386 5.5305 2.4508 0.9457 1.7576 12.8832
8.50 -0.775 -2.00 31.3162 0.2724 4.3313 2.4485 0.9739 1.3537 12.9779
8.50 -0.900 -2.00 31.5474 0.2160 3.3579 2.4454 0.9956 1.0350 13.0512
8.50 -0.400 -2.25 29.9699 0.1438 4.9271 2.4210 0.7320 3.0024 13.6289
8.50 -0.525 -2.25 30.2931 0.1188 3.9239 2.4235 0.7590 2.3298 13.7632
8.50 -0.650 -2.25 30.4858 0.0972 3.1093 2.4343 0.7819 1.7956 13.8473
8.50 -0.775 -2.25 30.7589 0.0777 2.4187 2.4274 0.8009 1.3758 13.9647
8.50 -0.900 -2.25 30.8392 0.0621 1.8823 2.4390 0.8154 1.0477 13.9897
8.50 -0.400 -2.50 28.9429 0.0352 2.2679 2.3843 0.5623 2.6413 14.2299
8.50 -0.525 -2.50 29.1504 0.0288 1.7851 2.3920 0.5798 2.0341 14.3647
8.50 -0.650 -2.50 29.3051 0.0234 1.3934 2.3977 0.5938 1.5568 14.4640
8.50 -0.775 -2.50 29.4936 0.0189 1.0746 2.3947 0.6055 1.1868 14.5686
8.50 -0.900 -2.50 29.5499 0.0153 0.8279 2.4019 0.6138 0.9000 14.6159
8.50 -0.400 -2.75 27.6079 0.0091 0.8418 2.2814 0.3981 2.0016 14.0874
8.50 -0.525 -2.75 27.7711 0.0077 0.6529 2.2830 0.4082 1.5340 14.2136
8.50 -0.650 -2.75 27.8709 0.0064 0.5043 2.2881 0.4161 1.1694 14.3068
8.50 -0.775 -2.75 27.8996 0.0054 0.3894 2.2955 0.4222 0.8878 14.3740
8.50 -0.900 -2.75 28.0262 0.0044 0.2962 2.2919 0.4277 0.6732 14.4449
8.50 -0.400 -3.00 26.3113 0.0017 0.2563 2.0645 0.2480 1.3210 12.4554
8.50 -0.525 -3.00 26.4397 0.0014 0.1984 2.0638 0.2546 1.0147 12.5702
8.50 -0.650 -3.00 26.4637 0.0011 0.1536 2.0707 0.2592 0.7720 12.6585
8.50 -0.775 -3.00 26.6056 0.0000 0.1175 2.0637 0.2638 0.5890 12.7301
8.50 -0.900 -3.00 26.5848 0.0000 0.0914 2.0773 0.2665 0.4449 12.8004
8.50 -0.400 -3.25 25.5956 0.0000 0.0700 1.7214 0.1292 0.7934 9.1156
8.50 -0.525 -3.25 25.7333 0.0000 0.0559 1.7288 0.1339 0.6142 9.2547
8.50 -0.650 -3.25 25.7858 0.0000 0.0442 1.7305 0.1372 0.4707 9.3412
8.50 -0.775 -3.25 25.8315 0.0000 0.0350 1.7319 0.1399 0.3588 9.4077
8.50 -0.900 -3.25 25.8647 0.0000 0.0275 1.7327 0.1419 0.2725 9.4574
8.50 -0.400 -3.50 56.6588 0.0000 0.0231 1.1976 0.0582 0.5607 4.7418
8.50 -0.525 -3.50 56.8722 0.0000 0.0179 1.2003 0.0608 0.4366 4.8196
8.50 -0.650 -3.50 57.0391 0.0000 0.0138 1.2023 0.0628 0.3368 4.8794
8.50 -0.775 -3.50 57.1681 0.0000 0.0106 1.2039 0.0643 0.2581 4.9251
8.50 -0.900 -3.50 57.2672 0.0000 0.0081 1.2051 0.0655 0.1967 4.9599
8.50 -0.400 -3.75 55.2819 0.0000 0.0036 0.7664 0.0149 0.2748 1.7258
8.50 -0.525 -3.75 55.5068 0.0000 0.0019 0.7688 0.0157 0.2158 1.7601
8.50 -0.650 -3.75 55.6828 0.0000 0.0015 0.7707 0.0164 0.1675 1.7865
8.50 -0.775 -3.75 55.8191 0.0000 0.0011 0.7720 0.0168 0.1290 1.8065
8.50 -0.900 -3.75 55.9237 0.0000 0.0000 0.7731 0.0172 0.0986 1.8218
8.50 -0.400 -4.00 53.7030 0.0000 0.0000 0.4654 0.0023 0.1184 0.5211
8.50 -0.525 -4.00 53.9103 0.0000 0.0000 0.4671 0.0024 0.0935 0.5327
8.50 -0.650 -4.00 54.1588 0.0000 0.0000 0.4692 0.0025 0.0730 0.5425
8.50 -0.775 -4.00 54.2007 0.0000 0.0000 0.4694 0.0026 0.0563 0.5483
8.50 -0.900 -4.00 54.3837 0.0000 0.0000 0.4709 0.0027 0.0432 0.5545
8.60 -0.150 -0.50 24.1419 0.7353 5.6132 2.1549 0.2494 0.1743 10.1500
8.60 -0.275 -0.50 24.1571 0.5360 4.5041 2.1619 0.2738 0.1237 10.4372
8.60 -0.400 -0.50 24.1668 0.3930 3.5875 2.1658 0.2969 0.0916 10.6998
8.60 -0.525 -0.50 24.1996 0.2901 2.8393 2.1705 0.3186 0.0691 10.9266
8.60 -0.650 -0.50 24.2157 0.2152 2.2307 2.1727 0.3382 0.0524 11.1297
8.60 -0.150 -0.75 24.6282 1.3997 6.8348 2.3449 0.2470 0.2770 9.2445
8.60 -0.275 -0.75 24.6862 1.0401 5.4479 2.3543 0.2726 0.2100 9.5387
8.60 -0.400 -0.75 24.7218 0.7740 4.3194 2.3627 0.2974 0.1611 9.8073
8.60 -0.525 -0.75 24.7601 0.5786 3.4128 2.3693 0.3216 0.1241 10.0630
8.60 -0.650 -0.75 24.7897 0.4327 2.6788 2.3715 0.3438 0.0956 10.3005
8.60 -0.150 -1.00 25.6298 2.7026 10.5635 2.5518 0.2946 0.5100 8.6679
8.60 -0.275 -1.00 25.7393 2.0671 8.4737 2.5607 0.3361 0.4075 9.0367
8.60 -0.400 -1.00 25.8394 1.5728 6.7585 2.5659 0.3797 0.3249 9.4046
8.60 -0.525 -1.00 25.9267 1.1919 5.3514 2.5674 0.4233 0.2580 9.7594
8.60 -0.650 -1.00 25.9993 0.9007 4.2042 2.5689 0.4644 0.2029 10.0675
8.60 -0.150 -1.25 26.3896 3.6739 16.2639 2.5815 0.4717 1.1384 9.6894
8.60 -0.275 -1.25 26.6210 2.9018 13.1160 2.5865 0.5387 0.9192 10.0749
8.60 -0.400 -1.25 26.8389 2.2615 10.4335 2.5850 0.6042 0.7380 10.4509
8.60 -0.525 -1.25 27.0124 1.7467 8.2181 2.5839 0.6649 0.5847 10.7742
8.60 -0.650 -1.25 27.1707 1.3387 6.4090 2.5797 0.7192 0.4602 11.0690
8.60 -0.150 -1.50 26.9335 3.1083 19.5777 2.5295 0.6841 2.2414 11.3938
8.60 -0.275 -1.50 27.2966 2.5644 15.9317 2.5357 0.7557 1.8026 11.6913
8.60 -0.400 -1.50 27.6317 2.0748 12.7583 2.5362 0.8213 1.4358 11.9761
8.60 -0.525 -1.50 27.9094 1.6495 10.0685 2.5319 0.8792 1.1315 12.2229
8.60 -0.650 -1.50 28.1273 1.2953 7.8630 2.5287 0.9282 0.8815 12.4290
8.60 -0.150 -1.75 27.3470 1.6365 17.6250 2.4690 0.7767 3.5021 12.9514
8.60 -0.275 -1.75 27.7820 1.4068 14.5373 2.4803 0.8396 2.8110 13.1742
8.60 -0.400 -1.75 28.1315 1.1856 11.8239 2.4905 0.8953 2.2286 13.3488
8.60 -0.525 -1.75 28.4817 0.9740 9.4401 2.4889 0.9444 1.7534 13.5420
8.60 -0.650 -1.75 28.7348 0.7886 7.4613 2.4923 0.9854 1.3637 13.6707
8.60 -0.260 -2.00 26.9947 2.9068 8.7586 2.3140 0.7430 3.4994 14.9121
8.60 -0.150 -2.00 27.5549 0.5731 12.0760 2.4168 0.7448 4.4681 14.2961
8.60 -0.275 -2.00 27.9379 0.4985 9.9868 2.4351 0.7940 3.5551 14.4817
8.60 -0.400 -2.00 28.3011 0.4243 8.1311 2.4443 0.8381 2.8061 14.6680
8.60 -0.525 -2.00 28.5581 0.3557 6.5538 2.4582 0.8757 2.1927 14.7787
8.60 -0.650 -2.00 28.8261 0.2915 5.1953 2.4609 0.9076 1.7010 14.9124
8.60 -0.150 -2.25 27.4670 0.1557 6.5658 2.3726 0.6250 4.6972 15.2769
8.60 -0.275 -2.25 27.7524 0.1321 5.3456 2.3933 0.6583 3.6883 15.4551
8.60 -0.400 -2.25 27.9838 0.1106 4.3042 2.4096 0.6871 2.8723 15.6065
8.60 -0.525 -2.25 28.1646 0.0913 3.4274 2.4242 0.7114 2.2204 15.7184
8.60 -0.650 -2.25 28.4107 0.0739 2.6862 2.4232 0.7331 1.7095 15.8761
8.60 -0.150 -2.50 26.8862 0.0378 2.9211 2.3252 0.4715 4.0990 15.6378
8.60 -0.275 -2.50 27.0813 0.0314 2.3284 2.3428 0.4908 3.1820 15.8150
8.60 -0.400 -2.50 27.1842 0.0260 1.8465 2.3643 0.5061 2.4497 15.9291
8.60 -0.525 -2.50 27.3788 0.0212 1.4406 2.3707 0.5213 1.8832 16.0964
8.60 -0.650 -2.50 27.3850 0.0174 1.1235 2.3874 0.5301 1.4312 16.1278
8.60 -0.150 -2.75 25.8916 0.0102 1.0679 2.2370 0.3183 2.9984 15.0344
8.60 -0.275 -2.75 26.0301 0.0087 0.8426 2.2509 0.3308 2.3240 15.2370
8.60 -0.400 -2.75 26.1290 0.0074 0.6562 2.2577 0.3399 1.7831 15.3734
8.60 -0.525 -2.75 26.1644 0.0064 0.5105 2.2694 0.3464 1.3584 15.4610
8.60 -0.650 -2.75 26.2029 0.0055 0.3938 2.2782 0.3518 1.0317 15.5351
8.60 -0.150 -3.00 25.0170 0.0036 0.3127 2.0162 0.1862 1.8764 12.8908
8.60 -0.275 -3.00 25.0529 0.0031 0.2491 2.0305 0.1929 1.4491 13.0685
8.60 -0.400 -3.00 25.1843 0.0016 0.1940 2.0313 0.2004 1.1260 13.2523
8.60 -0.525 -3.00 25.2368 0.0013 0.1506 2.0331 0.2054 0.8628 13.3642
8.60 -0.650 -3.00 25.1983 0.0011 0.1169 2.0451 0.2076 0.6514 13.4293
8.60 -0.150 -3.25 24.4897 0.0000 0.0778 1.6490 0.0892 1.0526 9.0236
8.60 -0.275 -3.25 24.5714 0.0000 0.0637 1.6551 0.0950 0.8341 9.2372
8.60 -0.400 -3.25 24.6331 0.0000 0.0516 1.6600 0.0994 0.6517 9.4031
8.60 -0.525 -3.25 24.6870 0.0000 0.0414 1.6635 0.1030 0.5046 9.5321
8.60 -0.650 -3.25 24.6729 0.0000 0.0337 1.6765 0.1052 0.3825 9.6589
8.60 -0.150 -3.50 54.2238 0.0000 0.0319 1.1587 0.0396 0.7280 4.7188
8.60 -0.275 -3.50 54.5001 0.0000 0.0254 1.1640 0.0431 0.5886 4.8741
8.60 -0.400 -3.50 54.7231 0.0000 0.0200 1.1681 0.0460 0.4677 4.9970
8.60 -0.525 -3.50 54.9000 0.0000 0.0156 1.1713 0.0484 0.3666 5.0931
8.60 -0.650 -3.50 55.0385 0.0000 0.0120 1.1737 0.0503 0.2843 5.1673
8.60 -0.260 -3.75 50.0216 0.0000 0.0011 0.6719 0.0014 0.0608 0.8994
8.60 -0.150 -3.75 52.8879 0.0000 0.0047 0.7342 0.0091 0.3246 1.6521
8.60 -0.275 -3.75 53.1786 0.0000 0.0038 0.7390 0.0102 0.2681 1.7225
8.60 -0.400 -3.75 53.4862 0.0000 0.0030 0.7436 0.0111 0.2169 1.7810
8.60 -0.525 -3.75 53.6050 0.0000 0.0016 0.7455 0.0118 0.1718 1.8221
8.60 -0.650 -3.75 53.8234 0.0000 0.0012 0.7486 0.0125 0.1346 1.8584
8.60 -0.150 -4.00 51.5250 0.0000 0.0000 0.4428 0.0012 0.1249 0.4780
8.60 -0.275 -4.00 51.7876 0.0000 0.0000 0.4462 0.0014 0.1046 0.5008
8.60 -0.400 -4.00 52.0006 0.0000 0.0000 0.4487 0.0015 0.0854 0.5190
8.60 -0.525 -4.00 52.1705 0.0000 0.0000 0.4507 0.0016 0.0682 0.5333
8.60 -0.650 -4.00 52.3041 0.0000 0.0000 0.4522 0.0017 0.0538 0.5444
8.70 -0.150 -0.50 23.9715 0.6146 4.1985 2.1252 0.1965 0.1785 10.6550
8.70 -0.275 -0.50 23.9830 0.4446 3.3617 2.1385 0.2136 0.1150 10.8777
8.70 -0.400 -0.50 23.9968 0.3235 2.6617 2.1477 0.2299 0.0810 11.0770
8.70 -0.525 -0.50 24.0100 0.2373 2.0881 2.1583 0.2442 0.0595 11.2322
8.70 -0.650 -0.50 24.0245 0.1753 1.6331 2.1631 0.2577 0.0443 11.3909
8.70 -0.150 -0.75 24.3121 1.1831 5.1091 2.3048 0.1928 0.2509 9.7625
8.70 -0.275 -0.75 24.3395 0.8731 4.0351 2.3246 0.2096 0.1813 9.9562
8.70 -0.400 -0.75 24.3686 0.6467 3.1716 2.3378 0.2256 0.1353 10.1480
8.70 -0.525 -0.75 24.3877 0.4809 2.4807 2.3482 0.2403 0.1020 10.3211
8.70 -0.650 -0.75 24.4118 0.3590 1.9317 2.3559 0.2536 0.0776 10.4798
8.70 -0.150 -1.00 25.0078 2.3554 8.0225 2.5100 0.2137 0.4133 9.1005
8.70 -0.275 -1.00 25.0762 1.7958 6.3712 2.5267 0.2369 0.3226 9.3632
8.70 -0.400 -1.00 25.1335 1.3640 5.0370 2.5405 0.2606 0.2520 9.6179
8.70 -0.525 -1.00 25.1863 1.0336 3.9579 2.5495 0.2834 0.1970 9.8641
8.70 -0.650 -1.00 25.2316 0.7814 3.0905 2.5549 0.3050 0.1536 10.0957
8.70 -0.150 -1.25 25.4417 3.4160 13.0976 2.5423 0.3143 0.8744 10.0802
8.70 -0.275 -1.25 25.5866 2.6939 10.5198 2.5587 0.3540 0.6996 10.3953
8.70 -0.400 -1.25 25.7151 2.0991 8.3469 2.5682 0.3924 0.5565 10.7022
8.70 -0.525 -1.25 25.8282 1.6200 6.5665 2.5741 0.4298 0.4404 10.9938
8.70 -0.650 -1.25 25.9194 1.2410 5.1120 2.5770 0.4621 0.3450 11.2438
8.70 -0.150 -1.50 25.6552 2.9650 17.1130 2.4987 0.5120 1.8364 12.2586
8.70 -0.275 -1.50 25.9004 2.4467 13.9244 2.5149 0.5636 1.4718 12.5343
8.70 -0.400 -1.50 26.1242 1.9790 11.1441 2.5241 0.6106 1.1698 12.7931
8.70 -0.525 -1.50 26.3069 1.5750 8.8099 2.5313 0.6526 0.9195 13.0110
8.70 -0.650 -1.50 26.4557 1.2377 6.8801 2.5342 0.6865 0.7153 13.1908
8.70 -0.150 -1.75 25.8808 1.4541 15.7869 2.4335 0.6556 3.0955 14.4361
8.70 -0.275 -1.75 26.1670 1.2531 13.0304 2.4551 0.7060 2.4706 14.6340
8.70 -0.400 -1.75 26.4333 1.0549 10.5809 2.4697 0.7519 1.9566 14.8245
8.70 -0.525 -1.75 26.6177 0.8721 8.4797 2.4841 0.7886 1.5271 14.9324
8.70 -0.650 -1.75 26.8098 0.7065 6.7001 2.4903 0.8218 1.1875 15.0706
8.70 -0.150 -2.00 26.0325 0.4481 10.4195 2.3777 0.6556 4.0701 16.0848
8.70 -0.275 -2.00 26.3139 0.3851 8.5413 2.3992 0.6973 3.2215 16.2893
8.70 -0.400 -2.00 26.4914 0.3270 6.9497 2.4271 0.7333 2.5200 16.3904
8.70 -0.525 -2.00 26.7066 0.2714 5.5509 2.4358 0.7644 1.9625 16.5505
8.70 -0.650 -2.00 26.8469 0.2224 4.4020 2.4513 0.7907 1.5151 16.6348
8.70 -0.150 -2.25 26.0122 0.1082 5.2648 2.3237 0.5464 4.2542 17.0398
8.70 -0.275 -2.25 26.1411 0.0904 4.2408 2.3637 0.5693 3.2991 17.1127
8.70 -0.400 -2.25 26.3125 0.0739 3.3548 2.3796 0.5909 2.5527 17.2579
8.70 -0.525 -2.25 26.4185 0.0601 2.6381 2.3995 0.6078 1.9582 17.3305
8.70 -0.650 -2.25 26.5169 0.0485 2.0557 2.4127 0.6223 1.4960 17.4100
8.70 -0.150 -2.50 25.5246 0.0262 2.2167 2.2950 0.3942 3.5720 16.9558
8.70 -0.275 -2.50 25.6426 0.0214 1.7340 2.3168 0.4072 2.7492 17.0881
8.70 -0.400 -2.50 25.8002 0.0174 1.3422 2.3281 0.4193 2.1118 17.2575
8.70 -0.525 -2.50 25.8054 0.0143 1.0395 2.3484 0.4252 1.5994 17.2572
8.70 -0.650 -2.50 25.9325 0.0117 0.7929 2.3447 0.4342 1.2192 17.3992
8.70 -0.150 -2.75 24.8529 0.0079 0.7677 2.2014 0.2497 2.4794 15.8404
8.70 -0.275 -2.75 24.9247 0.0068 0.5962 2.2154 0.2571 1.9050 15.9834
8.70 -0.400 -2.75 25.0200 0.0058 0.4576 2.2183 0.2645 1.4626 16.1473
8.70 -0.525 -2.75 25.0652 0.0051 0.3524 2.2266 0.2692 1.1126 16.2256
8.70 -0.650 -2.75 25.0763 0.0045 0.2704 2.2356 0.2715 0.8397 16.2601
8.70 -0.150 -3.00 24.2845 0.0034 0.2161 1.9798 0.1353 1.4526 13.1917
8.70 -0.275 -3.00 24.3166 0.0030 0.1706 1.9911 0.1400 1.1220 13.3564
8.70 -0.400 -3.00 24.3724 0.0015 0.1329 1.9904 0.1450 0.8687 13.5152
8.70 -0.525 -3.00 24.4139 0.0013 0.1029 1.9931 0.1486 0.6663 13.6308
8.70 -0.650 -3.00 24.4062 0.0011 0.0800 2.0019 0.1498 0.5027 13.6789
8.70 -0.150 -3.25 23.9636 0.0000 0.0549 1.5761 0.0602 0.7598 8.9753
8.70 -0.275 -3.25 23.9952 0.0000 0.0444 1.5992 0.0639 0.6007 9.1772
8.70 -0.400 -3.25 24.0213 0.0000 0.0364 1.6090 0.0669 0.4694 9.3373
8.70 -0.525 -3.25 24.0432 0.0000 0.0296 1.6139 0.0694 0.3636 9.4664
8.70 -0.650 -3.25 24.0608 0.0000 0.0242 1.6172 0.0714 0.2795 9.5666
8.70 -0.150 -3.50 52.5864 0.0000 0.0268 1.1210 0.0264 0.5234 4.6714
8.70 -0.275 -3.50 52.8002 0.0000 0.0212 1.1266 0.0291 0.4266 4.8422
8.70 -0.400 -3.50 52.9397 0.0000 0.0166 1.1303 0.0313 0.3409 4.9747
8.70 -0.525 -3.50 53.0751 0.0000 0.0129 1.1337 0.0330 0.2686 5.0819
8.70 -0.650 -3.50 53.1819 0.0000 0.0099 1.1363 0.0345 0.2092 5.1649
8.70 -0.150 -3.75 51.3106 0.0000 0.0037 0.7032 0.0054 0.2059 1.5536
8.70 -0.275 -3.75 51.4648 0.0000 0.0020 0.7072 0.0060 0.1722 1.6264
8.70 -0.400 -3.75 51.6490 0.0000 0.0016 0.7112 0.0066 0.1408 1.6871
8.70 -0.525 -3.75 51.8692 0.0000 0.0012 0.7152 0.0071 0.1129 1.7378
8.70 -0.650 -3.75 51.9840 0.0000 0.0000 0.7175 0.0075 0.0891 1.7755
8.70 -0.150 -4.00 49.8717 0.0000 0.0000 0.4210 0.0000 0.0689 0.4252
8.70 -0.275 -4.00 50.0813 0.0000 0.0000 0.4244 0.0000 0.0585 0.4482
8.70 -0.400 -4.00 50.2155 0.0000 0.0000 0.4249 0.0000 0.0482 0.4645
8.70 -0.525 -4.00 50.4338 0.0000 0.0000 0.4277 0.0000 0.0390 0.4802
8.70 -0.650 -4.00 50.4489 0.0000 0.0000 0.4285 0.0000 0.0309 0.4910
8.80 0.100 -0.50 23.8635 1.0233 4.0960 2.0277 0.1303 1.0005 10.8742
8.80 -0.025 -0.50 23.8657 0.7222 3.5079 2.0570 0.1389 0.5280 10.9561
8.80 -0.150 -0.50 23.8728 0.5126 2.9981 2.0805 0.1486 0.2324 11.0691
8.80 -0.275 -0.50 23.8700 0.3668 2.4381 2.1015 0.1598 0.1205 11.2072
8.80 -0.400 -0.50 23.8835 0.2651 1.9305 2.1185 0.1708 0.0768 11.3336
8.80 0.100 -0.75 24.0586 1.8763 5.6940 2.1736 0.1242 0.7815 10.0345
8.80 -0.025 -0.75 24.0867 1.3636 4.6292 2.2169 0.1338 0.4229 10.0947
8.80 -0.150 -0.75 24.0986 0.9932 3.6901 2.2504 0.1444 0.2474 10.1825
8.80 -0.275 -0.75 24.1172 0.7268 2.8990 2.2786 0.1557 0.1653 10.2937
8.80 -0.400 -0.75 24.1330 0.5338 2.2571 2.2986 0.1659 0.1177 10.4045
8.80 0.100 -1.00 24.4773 3.4225 9.4495 2.3511 0.1308 0.7231 9.4390
8.80 -0.025 -1.00 24.5281 2.6119 7.4866 2.4009 0.1426 0.4880 9.4893
8.80 -0.150 -1.00 24.5728 1.9813 5.8802 2.4373 0.1548 0.3508 9.5887
8.80 -0.275 -1.00 24.6119 1.4998 4.6043 2.4661 0.1674 0.2623 9.7138
8.80 -0.400 -1.00 24.6475 1.1320 3.5936 2.4859 0.1806 0.1999 9.8757
8.80 0.100 -1.25 24.5978 4.6451 15.1777 2.3814 0.1637 1.1309 10.0662
8.80 -0.025 -1.25 24.7028 3.7599 12.3649 2.4323 0.1825 0.8548 10.1917
8.80 -0.150 -1.25 24.8003 2.9872 9.9353 2.4668 0.2033 0.6651 10.3956
8.80 -0.275 -1.25 24.8827 2.3439 7.9070 2.4940 0.2247 0.5199 10.6081
8.80 -0.400 -1.25 24.9523 1.8179 6.2286 2.5130 0.2457 0.4067 10.8291
8.80 0.100 -1.50 24.4934 3.6862 20.0026 2.3383 0.2777 2.2226 12.3952
8.80 -0.025 -1.50 24.6597 3.1815 16.8543 2.3912 0.3125 1.7693 12.5953
8.80 -0.150 -1.50 24.8191 2.6742 13.8955 2.4290 0.3466 1.4100 12.8098
8.80 -0.275 -1.50 24.9665 2.1962 11.2431 2.4556 0.3782 1.1184 13.0145
8.80 -0.400 -1.50 25.0973 1.7702 8.9697 2.4752 0.4077 0.8825 13.2147
8.80 0.100 -1.75 24.4992 1.5619 18.5296 2.2640 0.4203 4.0234 15.3102
8.80 -0.025 -1.75 24.6781 1.4020 15.8151 2.3245 0.4637 3.2120 15.4522
8.80 -0.150 -1.75 24.8658 1.2272 13.2040 2.3656 0.5038 2.5603 15.6198
8.80 -0.275 -1.75 25.0428 1.0516 10.8416 2.3975 0.5397 2.0274 15.7652
8.80 -0.400 -1.75 25.1700 0.8835 8.7753 2.4262 0.5681 1.5814 15.8231
8.80 0.100 -2.00 24.6319 0.4369 12.2227 2.2008 0.4676 5.6429 17.4555
8.80 -0.025 -2.00 24.8131 0.3794 10.1637 2.2589 0.5043 4.4707 17.5875
8.80 -0.150 -2.00 24.9622 0.3252 8.3437 2.3070 0.5359 3.5082 17.6707
8.80 -0.275 -2.00 25.1130 0.2740 6.7453 2.3408 0.5645 2.7423 17.7834
8.80 -0.400 -2.00 25.2056 0.2286 5.4135 2.3767 0.5874 2.1198 17.7992
8.80 0.100 -2.25 24.6763 0.1058 6.2451 2.1678 0.4058 6.0367 18.3221
8.80 -0.025 -2.25 24.8374 0.0859 4.9649 2.2153 0.4281 4.7133 18.4556
8.80 -0.150 -2.25 24.9430 0.0696 3.9211 2.2634 0.4447 3.6331 18.4755
8.80 -0.275 -2.25 25.0508 0.0558 3.0609 2.2964 0.4602 2.7941 18.5415
8.80 -0.400 -2.25 25.1221 0.0446 2.3755 2.3261 0.4718 2.1318 18.5535
8.80 0.100 -2.50 24.4971 0.0259 2.5852 2.1547 0.2907 5.0124 17.8412
8.80 -0.025 -2.50 24.6001 0.0209 1.9962 2.1963 0.3017 3.8611 17.9398
8.80 -0.150 -2.50 24.6612 0.0169 1.5358 2.2364 0.3088 2.9412 17.9496
8.80 -0.275 -2.50 24.7538 0.0137 1.1676 2.2548 0.3163 2.2444 18.0385
8.80 -0.400 -2.50 24.8187 0.0112 0.8865 2.2699 0.3226 1.7055 18.0993
8.80 0.100 -2.75 24.1740 0.0080 0.8625 2.0967 0.1748 3.3152 16.1341
8.80 -0.025 -2.75 24.2263 0.0069 0.6611 2.1158 0.1808 2.5537 16.2642
8.80 -0.150 -2.75 24.2732 0.0061 0.5060 2.1374 0.1852 1.9527 16.3603
8.80 -0.275 -2.75 24.3687 0.0054 0.3904 2.1728 0.1880 1.4805 16.4390
8.80 -0.400 -2.75 24.2988 0.0048 0.2965 2.1785 0.1889 1.1119 16.3758
8.80 0.100 -3.00 23.8977 0.0041 0.2229 1.8899 0.0865 1.7945 12.8942
8.80 -0.025 -3.00 23.9267 0.0037 0.1767 1.9036 0.0909 1.4073 13.1127
8.80 -0.150 -3.00 23.9229 0.0033 0.1404 1.9331 0.0927 1.0682 13.2136
8.80 -0.275 -3.00 23.9592 0.0029 0.1090 1.9302 0.0964 0.8316 13.3802
8.80 -0.400 -3.00 23.9688 0.0025 0.0850 1.9405 0.0982 0.6338 13.4669
8.80 0.100 -3.25 23.7244 0.0000 0.0527 1.5526 0.0331 0.8173 8.2905
8.80 -0.025 -3.25 23.7377 0.0000 0.0449 1.5616 0.0362 0.6637 8.5720
8.80 -0.150 -3.25 23.7500 0.0000 0.0379 1.5687 0.0390 0.5307 8.8067
8.80 -0.275 -3.25 23.7608 0.0000 0.0307 1.5742 0.0413 0.4187 8.9972
8.80 -0.400 -3.25 23.7691 0.0000 0.0256 1.5783 0.0429 0.3257 9.1364
8.80 0.100 -3.50 50.7070 0.0000 0.0379 1.0658 0.0123 0.4903 4.0464
8.80 -0.025 -3.50 50.9750 0.0000 0.0302 1.0745 0.0145 0.4238 4.3021
8.80 -0.150 -3.50 51.1954 0.0000 0.0239 1.0814 0.0165 0.3560 4.5160
8.80 -0.275 -3.50 51.3731 0.0000 0.0188 1.0869 0.0184 0.2919 4.6909
8.80 -0.400 -3.50 51.5147 0.0000 0.0146 1.0912 0.0198 0.2346 4.8313
8.80 0.100 -3.75 49.3711 0.0000 0.0051 0.6564 0.0014 0.1529 1.2193
8.80 -0.025 -3.75 49.6554 0.0000 0.0041 0.6640 0.0018 0.1391 1.3238
8.80 -0.150 -3.75 49.8933 0.0000 0.0033 0.6702 0.0021 0.1217 1.4137
8.80 -0.275 -3.75 50.0888 0.0000 0.0017 0.6752 0.0024 0.1031 1.4886
8.80 -0.400 -3.75 50.3167 0.0000 0.0013 0.6801 0.0027 0.0850 1.5522
8.80 0.100 -4.00 48.0865 0.0000 0.0000 0.3898 0.0000 0.0420 0.3106
8.80 -0.025 -4.00 48.4027 0.0000 0.0000 0.3951 0.0000 0.0390 0.3398
8.80 -0.150 -4.00 48.5575 0.0000 0.0000 0.3985 0.0000 0.0346 0.3643
8.80 -0.275 -4.00 48.7308 0.0000 0.0000 0.4016 0.0000 0.0297 0.3853
8.80 -0.400 -4.00 48.8693 0.0000 0.0000 0.4041 0.0000 0.0248 0.4025
8.90 0.100 -0.50 23.8019 0.8957 2.9544 1.9413 0.0949 1.0218 11.3897
8.90 -0.025 -0.50 23.8035 0.6298 2.4160 1.9874 0.1023 0.6589 11.4303
8.90 -0.150 -0.50 23.8153 0.4435 2.0564 2.0155 0.1086 0.3510 11.4759
8.90 -0.275 -0.50 23.8130 0.3157 1.7567 2.0418 0.1155 0.1557 11.5402
8.90 -0.400 -0.50 23.8226 0.2275 1.4254 2.0644 0.1231 0.0802 11.6196
8.90 0.100 -0.75 23.9367 1.6319 4.0942 2.0772 0.0911 0.8798 10.5972
8.90 -0.025 -0.75 23.9533 1.1781 3.2787 2.1324 0.0974 0.5209 10.5587
8.90 -0.150 -0.75 23.9665 0.8518 2.6553 2.1752 0.1039 0.2797 10.5592
8.90 -0.275 -0.75 23.9776 0.6198 2.1101 2.2102 0.1111 0.1620 10.5952
8.90 -0.400 -0.75 23.9888 0.4536 1.6469 2.2374 0.1179 0.1061 10.6438
8.90 0.100 -1.00 24.2317 2.9060 6.9275 2.2346 0.0945 0.7694 10.0740
8.90 -0.025 -1.00 24.2618 2.1933 5.4609 2.2969 0.1015 0.4767 10.0146
8.90 -0.150 -1.00 24.2872 1.6478 4.2614 2.3452 0.1085 0.3130 9.9941
8.90 -0.275 -1.00 24.3086 1.2361 3.3036 2.3819 0.1157 0.2200 10.0250
8.90 -0.400 -1.00 24.3270 0.9260 2.5464 2.4096 0.1225 0.1608 10.0677
8.90 0.100 -1.25 24.2783 3.9307 11.1875 2.2514 0.1047 0.9653 10.4158
8.90 -0.025 -1.25 24.3387 3.1365 8.9784 2.3143 0.1146 0.6864 10.4273
8.90 -0.150 -1.25 24.3899 2.4645 7.1122 2.3625 0.1247 0.5050 10.4837
8.90 -0.275 -1.25 24.4335 1.9128 5.5788 2.3985 0.1352 0.3812 10.5897
8.90 -0.400 -1.25 24.4705 1.4730 4.3516 2.4261 0.1459 0.2916 10.7244
8.90 0.100 -1.50 24.1376 3.1755 15.1883 2.2091 0.1690 1.6771 12.5822
8.90 -0.025 -1.50 24.2249 2.7062 12.6274 2.2764 0.1866 1.2880 12.6484
8.90 -0.150 -1.50 24.3095 2.2478 10.2877 2.3261 0.2043 1.0019 12.7638
8.90 -0.275 -1.50 24.3874 1.8276 8.2408 2.3638 0.2210 0.7820 12.8850
8.90 -0.400 -1.50 24.4537 1.4607 6.5139 2.3922 0.2355 0.6071 12.9928
8.90 0.100 -1.75 24.0708 1.2720 14.4549 2.1499 0.2883 3.1395 16.0078
8.90 -0.025 -1.75 24.1387 1.1173 12.1261 2.2184 0.3141 2.4567 16.0419
8.90 -0.150 -1.75 24.2354 0.9600 9.9673 2.2696 0.3377 1.9281 16.1237
8.90 -0.275 -1.75 24.3130 0.8124 8.0949 2.3168 0.3567 1.4965 16.1096
8.90 -0.400 -1.75 24.3901 0.6722 6.4588 2.3468 0.3727 1.1595 16.1434
8.90 0.100 -2.00 24.0966 0.3068 9.2427 2.0877 0.3518 4.6260 18.7113
8.90 -0.025 -2.00 24.1859 0.2545 7.4582 2.1552 0.3740 3.5961 18.7292
8.90 -0.150 -2.00 24.2606 0.2088 5.9411 2.2134 0.3923 2.7747 18.6882
8.90 -0.275 -2.00 24.3287 0.1695 4.6782 2.2591 0.4075 2.1314 18.6577
8.90 -0.400 -2.00 24.3833 0.1360 3.6407 2.2926 0.4191 1.6275 18.6149
8.90 0.100 -2.25 24.1418 0.0656 4.4061 2.0582 0.3096 4.9326 19.5370
8.90 -0.025 -2.25 24.2141 0.0504 3.3649 2.1220 0.3205 3.7670 19.4618
8.90 -0.150 -2.25 24.2762 0.0386 2.5460 2.1736 0.3284 2.8566 19.3585
8.90 -0.275 -2.25 24.3288 0.0298 1.9179 2.2147 0.3345 2.1587 19.2586
8.90 -0.400 -2.25 24.3707 0.0231 1.4412 2.2472 0.3393 1.6268 19.1672
8.90 0.100 -2.50 24.0536 0.0162 1.7006 2.0548 0.2146 3.9388 18.5833
8.90 -0.025 -2.50 24.1664 0.0128 1.2670 2.1168 0.2189 2.9796 18.5373
8.90 -0.150 -2.50 24.1505 0.0102 0.9336 2.1440 0.2216 2.2395 18.4059
8.90 -0.275 -2.50 24.1566 0.0085 0.6964 2.1901 0.2206 1.6611 18.1672
8.90 -0.400 -2.50 24.1974 0.0071 0.5166 2.2055 0.2232 1.2511 18.1444
8.90 0.100 -2.75 23.8892 0.0061 0.5396 2.0045 0.1219 2.4782 16.3394
8.90 -0.025 -2.75 23.8985 0.0055 0.4055 2.0517 0.1216 1.8469 16.2109
8.90 -0.150 -2.75 23.9155 0.0049 0.3035 2.0762 0.1228 1.3914 16.1781
8.90 -0.275 -2.75 23.9325 0.0045 0.2289 2.0930 0.1231 1.0420 16.1195
8.90 -0.400 -2.75 23.9471 0.0040 0.1716 2.1033 0.1250 0.7904 16.1460
8.90 0.100 -3.00 23.8612 0.0038 0.1366 1.8365 0.0555 1.2527 12.6777
8.90 -0.025 -3.00 23.7497 0.0036 0.1073 1.8557 0.0562 0.9462 12.6743
8.90 -0.150 -3.00 23.7613 0.0032 0.0832 1.8640 0.0579 0.7291 12.7837
8.90 -0.275 -3.00 23.7720 0.0028 0.0648 1.8707 0.0594 0.5598 12.8789
8.90 -0.400 -3.00 23.7711 0.0025 0.0507 1.8807 0.0600 0.4227 12.9088
8.90 0.100 -3.25 23.6745 0.0000 0.0321 1.4865 0.0190 0.5236 7.7462
8.90 -0.025 -3.25 23.6663 0.0000 0.0295 1.5085 0.0209 0.4247 8.0349
8.90 -0.150 -3.25 23.6698 0.0000 0.0253 1.5146 0.0224 0.3380 8.2352
8.90 -0.275 -3.25 23.6728 0.0000 0.0215 1.5196 0.0235 0.2652 8.3902
8.90 -0.400 -3.25 23.6749 0.0000 0.0175 1.5237 0.0244 0.2059 8.5131
8.90 0.100 -3.50 49.4752 0.0000 0.0367 1.0228 0.0063 0.2851 3.6601
8.90 -0.025 -3.50 49.6619 0.0000 0.0287 1.0300 0.0075 0.2469 3.8888
8.90 -0.150 -3.50 49.8494 0.0000 0.0223 1.0364 0.0086 0.2077 4.0844
8.90 -0.275 -3.50 49.9973 0.0000 0.0173 1.0415 0.0095 0.1705 4.2453
8.90 -0.400 -3.50 50.1146 0.0000 0.0132 1.0455 0.0103 0.1372 4.3749
8.90 0.100 -3.75 48.0323 0.0000 0.0050 0.6200 0.0000 0.0692 0.9971
8.90 -0.025 -3.75 48.3516 0.0000 0.0039 0.6277 0.0000 0.0633 1.0847
8.90 -0.150 -3.75 48.4708 0.0000 0.0030 0.6322 0.0000 0.0555 1.1572
8.90 -0.275 -3.75 48.6313 0.0000 0.0016 0.6367 0.0000 0.0471 1.2199
8.90 -0.400 -3.75 48.7592 0.0000 0.0012 0.6402 0.0011 0.0390 1.2713
8.90 0.100 -4.00 46.7263 0.0000 0.0000 0.3649 0.0000 0.0153 0.2334
8.90 -0.025 -4.00 46.9379 0.0000 0.0000 0.3689 0.0000 0.0141 0.2544
8.90 -0.150 -4.00 47.1127 0.0000 0.0000 0.3722 0.0000 0.0124 0.2728
8.90 -0.275 -4.00 47.2555 0.0000 0.0000 0.3748 0.0000 0.0107 0.2884
8.90 -0.400 -4.00 47.3689 0.0000 0.0000 0.3770 0.0000 0.0089 0.3014
9.00 0.350 -0.50 23.7707 1.6528 4.2222 1.6634 0.0546 1.5181 11.6779
9.00 0.225 -0.50 23.7777 1.1708 3.1594 1.7615 0.0598 1.1788 11.6979
9.00 0.100 -0.50 23.7861 0.8225 2.3788 1.8398 0.0645 0.8840 11.6838
9.00 -0.025 -0.50 23.7876 0.5762 1.8306 1.8963 0.0696 0.6333 11.7121
9.00 -0.150 -0.50 23.8024 0.4053 1.4672 1.9401 0.0748 0.4149 11.7430
9.00 0.350 -0.75 23.8473 2.8410 5.8800 1.7849 0.0515 1.4398 10.9796
9.00 0.225 -0.75 23.8650 2.0728 4.3560 1.8909 0.0568 1.1068 10.9539
9.00 0.100 -0.75 23.8778 1.4954 3.2532 1.9730 0.0622 0.8137 10.9411
9.00 -0.025 -0.75 23.8926 1.0768 2.4959 2.0410 0.0672 0.5522 10.8932
9.00 -0.150 -0.75 23.9021 0.7767 1.9775 2.0935 0.0718 0.3321 10.8471
9.00 0.350 -1.00 24.0219 4.4422 9.2221 1.8978 0.0533 1.4712 10.7697
9.00 0.225 -1.00 24.0553 3.4119 7.0538 2.0110 0.0590 1.0982 10.6836
9.00 0.100 -1.00 24.0835 2.5882 5.4284 2.1084 0.0644 0.7682 10.5509
9.00 -0.025 -1.00 24.1042 1.9432 4.2171 2.1843 0.0691 0.4936 10.4222
9.00 -0.150 -1.00 24.1201 1.4514 3.2879 2.2412 0.0737 0.3067 10.3538
9.00 0.350 -1.25 23.9952 5.0842 13.4546 1.8941 0.0549 1.5911 10.8965
9.00 0.225 -1.25 24.0471 4.1991 10.8127 2.0118 0.0607 1.1994 10.7870
9.00 0.100 -1.25 24.0912 3.3813 8.6148 2.1070 0.0660 0.8551 10.6728
9.00 -0.025 -1.25 24.1278 2.6709 6.8207 2.1817 0.0712 0.5893 10.5942
9.00 -0.150 -1.25 24.1576 2.0805 5.3567 2.2408 0.0768 0.4116 10.5723
9.00 0.350 -1.50 23.8514 3.5170 16.3948 1.8422 0.0790 2.1689 12.5266
9.00 0.225 -1.50 23.8998 3.1177 13.8175 1.9608 0.0878 1.6758 12.4986
9.00 0.100 -1.50 23.9487 2.6926 11.5060 2.0614 0.0967 1.2580 12.4520
9.00 -0.025 -1.50 23.9974 2.2601 9.4118 2.1387 0.1061 0.9446 12.4682
9.00 -0.150 -1.50 24.0435 1.8559 7.5801 2.2016 0.1156 0.7164 12.5102
9.00 0.350 -1.75 23.7578 1.2984 15.2357 1.7833 0.1459 3.8322 16.0218
9.00 0.225 -1.75 23.7933 1.1561 12.9401 1.9033 0.1643 3.0143 16.1692
9.00 0.100 -1.75 23.8320 1.0092 10.8110 2.0049 0.1805 2.3269 16.1881
9.00 -0.025 -1.75 23.8754 0.8647 8.8770 2.0863 0.1957 1.7956 16.1966
9.00 -0.150 -1.75 23.9168 0.7286 7.1776 2.1534 0.2083 1.3804 16.1459
9.00 0.350 -2.00 23.7548 0.3230 10.3626 1.7321 0.2104 6.0133 19.5254
9.00 0.225 -2.00 23.7886 0.2614 8.3427 1.8496 0.2290 4.6751 19.5921
9.00 0.100 -2.00 23.8272 0.2075 6.5786 1.9484 0.2442 3.5880 19.5312
9.00 -0.025 -2.00 23.8610 0.1627 5.1087 2.0358 0.2556 2.7252 19.3514
9.00 -0.150 -2.00 23.8962 0.1260 3.9081 2.1021 0.2649 2.0671 19.1999
9.00 0.350 -2.25 23.7764 0.0737 5.3132 1.7251 0.2052 6.6620 20.7228
9.00 0.225 -2.25 23.8180 0.0534 3.9442 1.8331 0.2141 5.0659 20.6089
9.00 0.100 -2.25 23.8480 0.0386 2.9011 1.9399 0.2187 3.7853 20.2640
9.00 -0.025 -2.25 23.8828 0.0278 2.0961 2.0148 0.2221 2.8215 19.9698
9.00 -0.150 -2.25 23.9534 0.0203 1.5144 2.0773 0.2247 2.1043 19.7316
9.00 0.350 -2.50 23.7732 0.0176 2.0576 1.7440 0.1470 5.3230 19.5662
9.00 0.225 -2.50 23.7967 0.0133 1.4755 1.8608 0.1478 3.9473 19.2389
9.00 0.100 -2.50 23.8279 0.0101 1.0368 1.9315 0.1484 2.9257 18.9621
9.00 -0.025 -2.50 23.8426 0.0081 0.7430 2.0108 0.1468 2.1421 18.5309
9.00 -0.150 -2.50 23.8625 0.0067 0.5321 2.0600 0.1461 1.5799 18.2175
9.00 0.350 -2.75 23.7247 0.0062 0.6233 1.7846 0.0799 3.1619 16.4817
9.00 0.225 -2.75 23.7366 0.0055 0.4500 1.8663 0.0792 2.3384 16.2782
9.00 0.100 -2.75 23.7503 0.0049 0.3235 1.9146 0.0790 1.7379 16.1136
9.00 -0.025 -2.75 23.7615 0.0046 0.2366 1.9661 0.0775 1.2752 15.8576
9.00 -0.150 -2.75 23.7689 0.0042 0.1739 2.0009 0.0764 0.9388 15.6394
9.00 0.350 -3.00 23.6914 0.0041 0.1385 1.6899 0.0318 1.4066 11.9304
9.00 0.225 -3.00 23.6912 0.0040 0.1073 1.7359 0.0326 1.0779 12.0188
9.00 0.100 -3.00 23.6949 0.0037 0.0826 1.7630 0.0331 0.8205 12.0590
9.00 -0.025 -3.00 23.6946 0.0036 0.0643 1.7974 0.0329 0.6101 12.0128
9.00 -0.150 -3.00 23.6965 0.0033 0.0500 1.8123 0.0331 0.4610 12.0251
9.00 0.350 -3.25 23.6972 0.0027 0.0309 1.4178 0.0086 0.4801 6.7084
9.00 0.225 -3.25 23.6615 0.0015 0.0280 1.4403 0.0098 0.4008 7.0190
9.00 0.100 -3.25 23.6580 0.0012 0.0237 1.4447 0.0106 0.3234 7.2158
9.00 -0.025 -3.25 23.6599 0.0000 0.0207 1.4509 0.0114 0.2589 7.4046
9.00 -0.150 -3.25 23.6558 0.0000 0.0180 1.4591 0.0121 0.2055 7.5718
9.00 0.350 -3.50 47.8137 0.0000 0.0643 0.9635 0.0015 0.1928 2.7777
9.00 0.225 -3.50 48.0968 0.0000 0.0492 0.9732 0.0019 0.1781 3.0315
9.00 0.100 -3.50 48.3364 0.0000 0.0382 0.9815 0.0023 0.1590 3.2617
9.00 -0.025 -3.50 48.4918 0.0000 0.0295 0.9877 0.0027 0.1374 3.4596
9.00 -0.150 -3.50 48.6530 0.0000 0.0227 0.9934 0.0042 0.1154 3.6301
9.00 0.350 -3.75 46.2971 0.0000 0.0087 0.5718 0.0000 0.0319 0.6447
9.00 0.225 -3.75 46.5717 0.0000 0.0068 0.5795 0.0000 0.0312 0.7209
9.00 0.100 -3.75 46.8105 0.0000 0.0053 0.5861 0.0000 0.0293 0.7930
9.00 -0.025 -3.75 47.0126 0.0000 0.0041 0.5918 0.0000 0.0265 0.8585
9.00 -0.150 -3.75 47.1802 0.0000 0.0031 0.5965 0.0000 0.0232 0.9160
9.00 0.350 -4.00 45.0691 0.0000 0.0000 0.3345 0.0000 0.0057 0.1386
9.00 0.225 -4.00 45.2979 0.0000 0.0000 0.3387 0.0000 0.0056 0.1550
9.00 0.100 -4.00 45.4979 0.0000 0.0000 0.3424 0.0000 0.0052 0.1703
9.00 -0.025 -4.00 45.6643 0.0000 0.0000 0.3455 0.0000 0.0047 0.1842
9.00 -0.150 -4.00 45.8019 0.0000 0.0000 0.3481 0.0000 0.0042 0.1963
9.10 0.350 -0.50 23.7736 1.5432 3.8111 1.5233 0.0343 1.0804 11.5304
9.10 0.225 -0.50 23.7875 1.0939 2.8326 1.6318 0.0379 0.8573 11.6516
9.10 0.100 -0.50 23.7949 0.7714 2.1043 1.7270 0.0411 0.6658 11.6934
9.10 -0.025 -0.50 23.8068 0.5412 1.5695 1.8004 0.0443 0.5017 11.7211
9.10 -0.150 -0.50 23.8115 0.3813 1.1976 1.8555 0.0480 0.3634 11.7864
9.10 0.350 -0.75 23.8280 2.6432 5.2124 1.6396 0.0317 1.0266 10.8449
9.10 0.225 -0.75 23.8509 1.9325 3.8359 1.7614 0.0354 0.8126 10.8979
9.10 0.100 -0.75 23.8679 1.3964 2.8158 1.8613 0.0389 0.6281 10.9291
9.10 -0.025 -0.75 23.8825 1.0057 2.0942 1.9440 0.0426 0.4636 10.9204
9.10 -0.150 -0.75 23.8936 0.7253 1.5976 2.0080 0.0461 0.3161 10.8977
9.10 0.350 -1.00 23.9462 4.0393 7.9269 1.7323 0.0320 1.0711 10.7193
9.10 0.225 -1.00 23.9835 3.1101 6.0100 1.8656 0.0361 0.8413 10.7062
9.10 0.100 -1.00 24.0003 2.3553 4.5422 1.9763 0.0398 0.6334 10.6323
9.10 -0.025 -1.00 24.0181 1.7669 3.4570 2.0654 0.0433 0.4458 10.5198
9.10 -0.150 -1.00 24.0313 1.3171 2.6592 2.1342 0.0466 0.2922 10.4405
9.10 0.350 -1.25 23.9181 4.4854 11.1899 1.7146 0.0309 1.1287 10.6115
9.10 0.225 -1.25 23.9557 3.6832 8.8726 1.8477 0.0346 0.8941 10.5776
9.10 0.100 -1.25 23.9874 2.9513 6.9655 1.9573 0.0382 0.6780 10.5099
9.10 -0.025 -1.25 24.0125 2.3185 5.4388 2.0459 0.0416 0.4876 10.4313
9.10 -0.150 -1.25 24.0321 1.7959 4.2325 2.1148 0.0449 0.3380 10.3821
9.10 0.350 -1.50 23.7962 3.0408 13.1238 1.6595 0.0408 1.4270 11.7222
9.10 0.225 -1.50 23.8251 2.6553 10.7831 1.7884 0.0454 1.1461 11.7802
9.10 0.100 -1.50 23.8548 2.2594 8.7772 1.9001 0.0501 0.8861 11.7600
9.10 -0.025 -1.50 23.8837 1.8726 7.0669 1.9891 0.0553 0.6702 11.7855
9.10 -0.150 -1.50 23.9099 1.5214 5.6264 2.0628 0.0605 0.5019 11.8170
9.10 0.350 -1.75 23.7085 1.0619 11.7686 1.6037 0.0805 2.5447 15.2176
9.10 0.225 -1.75 23.7219 0.9154 9.5559 1.7347 0.0893 2.0151 15.3972
9.10 0.100 -1.75 23.7383 0.7735 7.6756 1.8463 0.0978 1.5621 15.4630
9.10 -0.025 -1.75 23.7563 0.6420 6.1027 1.9379 0.1058 1.1974 15.4795
9.10 -0.150 -1.75 23.7738 0.5272 4.8206 2.0187 0.1123 0.9068 15.3742
9.10 0.350 -2.00 23.6788 0.2342 7.6027 1.5584 0.1305 4.3032 19.3406
9.10 0.225 -2.00 23.6926 0.1763 5.7339 1.6923 0.1402 3.3083 19.4479
9.10 0.100 -2.00 23.7028 0.1293 4.2364 1.8060 0.1473 2.4910 19.3209
9.10 -0.025 -2.00 23.7295 0.0930 3.0754 1.8969 0.1532 1.8652 19.1552
9.10 -0.150 -2.00 23.7302 0.0671 2.2351 1.9822 0.1566 1.3786 18.7876
9.10 0.350 -2.25 23.6852 0.0471 3.6177 1.5634 0.1337 4.8640 20.9140
9.10 0.225 -2.25 23.7049 0.0308 2.4651 1.6854 0.1363 3.5943 20.6829
9.10 0.100 -2.25 23.7184 0.0203 1.6616 1.7949 0.1366 2.6163 20.2025
9.10 -0.025 -2.25 23.7345 0.0138 1.1278 1.8875 0.1361 1.8981 19.6499
9.10 -0.150 -2.25 23.7489 0.0100 0.7792 1.9665 0.1354 1.3785 19.0840
9.10 0.350 -2.50 23.6905 0.0114 1.3066 1.6048 0.0941 3.7500 19.4647
9.10 0.225 -2.50 23.7135 0.0084 0.8626 1.7223 0.0922 2.6993 18.9840
9.10 0.100 -2.50 23.7320 0.0065 0.5735 1.8100 0.0904 1.9448 18.4550
9.10 -0.025 -2.50 23.7456 0.0055 0.3950 1.8972 0.0880 1.3952 17.8211
9.10 -0.150 -2.50 23.7432 0.0048 0.2775 1.9541 0.0867 1.0134 17.3179
9.10 0.350 -2.75 23.6867 0.0049 0.3760 1.6491 0.0488 2.1224 15.9965
9.10 0.225 -2.75 23.6922 0.0046 0.2609 1.7543 0.0467 1.5197 15.5797
9.10 0.100 -2.75 23.7013 0.0043 0.1827 1.8188 0.0452 1.0978 15.2004
9.10 -0.025 -2.75 23.7064 0.0041 0.1302 1.8745 0.0434 0.7883 14.7801
9.10 -0.150 -2.75 23.7107 0.0038 0.0947 1.9076 0.0428 0.5780 14.5109
9.10 0.350 -3.00 23.6886 0.0039 0.0858 1.6039 0.0180 0.8810 11.1816
9.10 0.225 -3.00 23.6889 0.0037 0.0646 1.6497 0.0177 0.6577 11.1304
9.10 0.100 -3.00 23.6891 0.0037 0.0496 1.6970 0.0173 0.4833 11.0222
9.10 -0.025 -3.00 23.6933 0.0035 0.0383 1.7260 0.0170 0.3575 10.9355
9.10 -0.150 -3.00 23.7369 0.0032 0.0297 1.7354 0.0173 0.2718 10.9566
9.10 0.350 -3.25 48.2058 0.0047 0.4506 1.4636 0.0086 0.5309 7.5808
9.10 0.225 -3.25 48.3666 0.0035 0.3455 1.4651 0.0093 0.4223 7.7561
9.10 0.100 -3.25 48.4942 0.0018 0.2638 1.4665 0.0098 0.3325 7.9049
9.10 -0.025 -3.25 48.5934 0.0013 0.2005 1.4678 0.0102 0.2594 8.0281
9.10 -0.150 -3.25 48.6704 0.0000 0.1520 1.4688 0.0106 0.2008 8.1280
9.10 0.350 -3.50 46.6554 0.0000 0.0693 0.9206 0.0000 0.0912 2.3066
9.10 0.225 -3.50 46.8852 0.0000 0.0534 0.9280 0.0000 0.0817 2.4859
9.10 0.100 -3.50 47.0794 0.0000 0.0403 0.9345 0.0000 0.0714 2.6495
9.10 -0.025 -3.50 47.1975 0.0000 0.0308 0.9392 0.0010 0.0607 2.7906
9.10 -0.150 -3.50 47.3288 0.0000 0.0235 0.9436 0.0012 0.0503 2.9132
9.10 0.350 -3.75 45.1223 0.0000 0.0093 0.5383 0.0000 0.0111 0.4624
9.10 0.225 -3.75 45.2641 0.0000 0.0071 0.5428 0.0000 0.0101 0.5040
9.10 0.100 -3.75 45.4321 0.0000 0.0054 0.5474 0.0000 0.0090 0.5435
9.10 -0.025 -3.75 45.5746 0.0000 0.0042 0.5513 0.0000 0.0078 0.5791
9.10 -0.150 -3.75 45.6923 0.0000 0.0032 0.5546 0.0000 0.0066 0.6102
9.10 0.350 -4.00 43.8422 0.0000 0.0000 0.3123 0.0000 0.0011 0.0895
9.10 0.225 -4.00 43.9927 0.0000 0.0000 0.3151 0.0000 0.0000 0.0974
9.10 0.100 -4.00 44.1231 0.0000 0.0000 0.3175 0.0000 0.0000 0.1047
9.10 -0.025 -4.00 44.2308 0.0000 0.0000 0.3195 0.0000 0.0000 0.1111
9.10 -0.150 -4.00 44.3188 0.0000 0.0000 0.3211 0.0000 0.0000 0.1165
